Fp1,Fp2,F3,F4,C3,C4
2.45335,0.66013,-1.86922,-2.73299,-0.62294,0.35756
2.64384,1.01563,-1.62702,-2.33545,-0.22085,0.58896
2.75256,0.56296,-2.09570,-2.19334,-0.03420,0.67466
2.53181,0.38362,-2.07459,-2.60851,-0.23634,0.57045
2.41725,0.06066,-2.44460,-2.53355,-0.22825,0.42240
2.48342,0.09967,-2.27915,-2.21367,0.18352,0.45454
2.63812,-0.01007,-2.11411,-2.19031,0.44790,0.89662
2.25120,0.10120,-2.18188,-2.07120,0.36461,0.94748
2.13616,-0.46588,-2.29194,-2.14894,0.33248,0.89221
2.10427,-0.45649,-2.53949,-2.24822,0.37005,0.99204
2.10772,-0.64955,-2.42641,-2.18487,0.32544,1.16315
2.14960,-0.47964,-2.41743,-1.85850,0.85294,1.42146
1.99140,-0.46253,-2.50097,-1.94722,0.98720,1.32382
1.64277,-1.03978,-2.76947,-1.81951,0.89958,1.39013
1.47101,-1.00444,-2.78089,-1.82491,1.07447,1.34443
1.51057,-1.12747,-2.92013,-1.58371,1.08539,1.55519
1.51602,-1.04045,-2.61584,-1.13188,1.11476,1.61933
1.19633,-1.53656,-2.37400,-1.08434,1.25490,1.52804
0.83490,-1.68446,-2.62353,-1.21228,1.19480,1.61954
0.72830,-1.52246,-2.54122,-1.40249,1.12566,1.35170
0.60440,-1.57194,-2.49590,-1.03839,1.02570,1.65526
0.97448,-1.61613,-2.15833,-0.84824,1.47908,2.02172
0.69930,-1.26468,-1.99786,-0.54060,1.50867,2.20545
0.59275,-1.68108,-1.94317,-0.80303,1.64644,1.96288
0.25057,-1.68596,-2.02013,-0.87596,1.42883,2.01579
0.39833,-1.54227,-1.87259,-0.60685,1.61149,2.13276
0.70895,-1.27236,-2.01537,-0.23403,1.85336,2.27860
0.64478,-1.15126,-1.66337,0.05533,2.22545,2.38774
0.42019,-1.68011,-1.64008,0.28890,2.04001,2.25728
0.05108,-1.87237,-1.99775,0.16081,1.96662,1.92735
0.28924,-2.05458,-2.15077,-0.03137,1.63318,1.94701
0.12923,-1.69345,-1.63437,0.52259,1.79932,2.21364
0.08826,-1.44869,-1.48835,0.42719,1.90280,2.58680
0.05560,-1.45517,-1.47009,0.33123,2.17560,2.47264
-0.27929,-1.82579,-1.48875,0.15520,1.93851,2.58771
-0.28088,-1.63639,-1.52252,0.23542,1.81363,2.64071
0.09926,-1.79030,-1.41676,0.58833,2.05785,2.73463
0.09519,-1.77793,-1.37834,0.68062,2.60210,2.87388
0.06001,-1.47692,-1.51134,0.56056,2.45146,3.03087
-0.37726,-1.92999,-1.53080,0.61373,2.50871,3.03495
-0.20015,-1.76901,-1.32235,0.47463,2.35249,2.81501
-0.37911,-1.92526,-1.38720,0.85369,2.72970,3.15611
-0.36491,-1.85846,-1.20469,1.04601,2.92880,3.33710
-0.42856,-2.03143,-1.43927,0.99405,2.70660,2.92278
-0.57222,-2.15461,-1.51624,0.77900,2.44416,2.98613
-0.69530,-2.28449,-1.25096,0.85623,2.84742,2.87662
-0.66773,-1.82813,-0.78421,0.78228,2.74070,3.08237
-0.71651,-1.66054,-0.83103,1.22746,2.94686,3.37952
-0.81198,-1.64162,-0.73024,1.38762,3.16789,3.18194
-0.98408,-1.86392,-1.02609,1.06535,3.13527,3.36010
-1.31635,-1.97915,-0.92976,1.07345,2.88274,3.18127
-1.11999,-2.10595,-0.96293,1.65901,3.43896,3.26826
-0.86224,-1.69334,-0.75722,1.77417,3.56573,3.40270
-1.04808,-1.73806,-0.60710,2.19483,3.54308,2.97418
-1.14435,-2.24473,-0.66469,1.79817,3.31166,2.98677
-1.35427,-2.13594,-0.98325,1.79046,2.96491,2.41542
-1.64209,-2.41160,-0.80872,2.28508,3.19101,2.51332
-1.60381,-2.15309,-0.31508,2.43404,3.26877,2.67425
-1.70267,-1.89103,-0.10290,2.39385,3.29873,2.53149
-1.66864,-2.13603,-0.26102,2.52616,2.87022,2.09366
-2.07025,-2.28133,-0.20088,2.22485,2.55621,1.90876
-1.94050,-1.95970,-0.14616,2.28807,2.55396,1.97393
-2.11793,-2.11612,0.46044,2.77462,2.81059,2.12941
-2.00159,-1.89566,0.33433,2.64658,2.93471,2.23746
-2.25210,-1.87839,0.57825,2.66656,2.56210,2.01401
-2.21550,-2.03852,0.58748,2.77329,2.19842,1.73644
-2.18144,-1.73815,0.72072,3.02409,2.42781,1.71635
-2.17569,-1.85579,0.83743,3.20414,2.18701,1.63798
-2.18714,-1.54850,1.00257,3.00197,2.40512,1.66260
-2.73973,-1.75821,1.04858,3.04011,2.09840,1.18906
-2.58532,-1.83755,1.01850,2.78430,1.74410,1.29459
-2.84833,-1.42639,1.55876,2.79987,1.80258,1.12496
-2.52034,-0.87736,1.76263,2.85713,1.88943,1.33568
-2.16488,-0.69132,2.00287,3.02505,1.73741,1.32314
-2.31464,-0.84550,2.07052,2.87191,1.46592,1.36312
-2.56961,-0.82346,1.81053,2.76443,1.54955,1.24748
-2.39664,-0.54758,1.65390,2.66599,1.48529,1.21824
-2.14981,-0.33378,2.12697,3.11454,1.43863,1.07948
-1.90896,-0.26527,2.34176,3.18379,1.67187,1.09015
-1.73640,-0.18530,2.26799,3.02731,1.75385,1.03798
-2.16010,-0.31613,1.97981,2.99723,1.14350,0.68702
-1.97215,-0.39282,1.98918,2.64832,1.25787,0.51045
-1.94048,-0.30919,2.06804,2.62869,1.22706,0.51131
-1.60727,0.15080,2.18599,2.68326,1.36235,0.75763
-1.87532,0.19486,2.06126,2.66824,1.23642,0.53099
-1.72906,-0.02970,2.17742,2.22963,0.82895,0.54103
-1.82049,0.04725,1.93454,2.41570,0.80724,0.27540
-1.60638,0.15025,2.24738,2.13742,0.85565,0.19805
-1.64360,0.33083,2.18353,2.27049,0.84693,0.38853
-1.29543,0.32779,2.18821,2.34680,0.60251,0.16902
-1.73428,0.43008,2.01128,1.95037,0.75648,0.03394
-1.76612,0.31679,1.81161,2.09285,0.39793,-0.04324
-1.60459,0.34726,2.11223,2.24049,0.36345,-0.25320
-1.42812,0.46811,2.17366,2.15913,0.54681,-0.17690
-1.36015,0.49820,2.14633,1.93663,0.18553,-0.23391
-1.54013,0.32366,1.93416,1.91424,0.05655,-0.82062
-1.82190,0.46709,2.03302,1.79001,-0.15527,-0.67431
-1.44325,0.68643,2.39885,1.74990,-0.06003,-0.80758
-1.48115,0.98900,2.53041,1.61184,0.04881,-0.82760
-1.48925,0.86326,2.56870,1.78655,0.02359,-0.63773
-1.37880,0.86672,2.35133,1.39427,-0.15160,-0.98295
-1.33440,0.97786,2.42961,1.54632,-0.41009,-1.23130
-1.36945,0.90726,2.24402,1.38780,-0.69127,-1.19620
-0.92138,1.16755,2.65821,1.70115,-0.26926,-1.39985
-1.00024,1.18934,2.73919,1.95789,-0.43474,-1.49083
-1.09307,1.08076,2.58206,1.81553,-0.73279,-1.81786
-1.25742,0.99836,2.14722,1.42643,-1.18974,-2.19248
-1.10785,1.22564,2.40651,1.25384,-1.43308,-2.34381
-0.93909,1.31623,2.35502,1.35114,-1.14813,-2.10888
-0.63485,1.45265,2.63896,1.65464,-1.52012,-2.20726
-0.86685,1.51580,2.49440,1.18483,-1.76678,-2.50490
-0.99608,1.45289,2.38358,0.94432,-1.97298,-2.57963
-0.65245,1.56686,2.55188,0.73621,-2.00380,-2.76506
-0.71330,1.80647,2.58402,0.98308,-2.21640,-2.59380
-0.52686,2.01018,2.71307,0.70097,-2.01696,-2.28691
-0.22110,1.86363,2.44224,0.78869,-2.30279,-2.52967
-0.46607,1.80231,2.11168,0.26455,-2.55807,-2.50221
-0.28594,1.86384,2.41536,0.45471,-2.39925,-2.76047
0.11639,2.32754,2.10613,0.17012,-2.53288,-2.72992
0.26623,2.08586,2.23388,0.21580,-2.38206,-2.46732
0.03604,2.32882,2.09791,0.01233,-2.80068,-2.70963
0.01508,1.98035,2.15215,-0.43233,-2.63711,-2.77087
0.21551,2.27225,2.04841,-0.61543,-2.96133,-2.90143
0.54659,2.28736,2.04860,-0.66522,-2.72400,-2.47829
0.63525,2.64935,2.18285,-0.72151,-2.66918,-2.44844
0.60962,2.57547,1.96941,-0.95429,-2.68400,-2.40953
0.46495,2.71077,1.91473,-1.00046,-2.56613,-2.30898
0.92907,2.66089,1.71104,-1.10077,-2.89156,-2.64454
1.22228,2.61787,1.72620,-1.14179,-2.58803,-2.17191
1.33824,2.70584,1.41350,-1.17559,-2.38755,-2.29237
1.34945,2.55074,1.14588,-1.31364,-2.45415,-2.41652
1.37846,2.31545,1.11662,-1.35392,-2.54619,-2.66252
1.47557,2.04216,0.54859,-1.70067,-2.67191,-2.64713
1.50777,2.20672,0.51656,-1.47302,-2.53397,-2.66470
1.48640,2.31312,0.81064,-1.37516,-2.53517,-2.42612
1.72930,2.52361,0.63554,-1.53318,-2.54968,-2.36204
1.77576,2.04245,0.46333,-1.78021,-2.74150,-2.57247
1.67390,1.87251,0.25813,-1.97039,-2.81048,-2.60348
1.65724,1.96072,0.08855,-2.30455,-2.44908,-2.43508
1.78797,1.90945,0.30473,-2.08951,-2.63251,-2.30312
1.79781,1.88433,-0.08905,-1.89949,-2.31120,-2.32475
1.71103,1.90299,-0.28143,-2.15462,-2.72105,-2.54293
1.68739,1.54269,-0.48210,-2.47834,-2.47387,-2.55208
1.86486,1.64724,-0.34996,-2.25370,-2.64787,-2.72440
1.74602,1.57758,-0.27648,-2.03500,-2.33459,-2.29255
1.76559,1.44419,-0.48605,-2.37771,-2.40461,-2.45047
1.64386,1.12652,-0.54820,-2.28246,-2.88732,-2.66730
1.55873,1.31215,-0.46922,-2.42104,-2.73222,-2.58144
1.29717,1.31671,-0.60300,-2.38410,-2.79061,-2.31396
1.74067,1.63842,-0.42757,-2.39599,-2.46346,-2.04741
1.76466,1.52688,-0.30842,-2.41696,-2.53522,-2.19036
1.57548,1.38894,-0.42594,-2.40845,-2.77018,-2.30491
1.67241,1.21881,-0.87994,-2.57369,-2.68368,-2.40999
1.72906,1.34610,-0.67707,-2.47847,-2.39411,-1.96668
2.14409,1.45217,-0.85051,-2.30170,-2.40546,-1.79534
2.21678,1.41017,-0.55575,-2.26000,-1.96518,-1.76898
2.04283,1.44491,-1.04574,-2.31072,-2.10177,-1.98682
1.69727,1.17995,-1.15775,-2.56698,-2.57523,-1.86061
1.90215,0.97030,-1.31342,-2.62735,-2.54285,-2.11541
2.06671,1.00852,-1.34410,-2.33330,-2.25241,-1.81684
2.10062,1.00533,-0.94128,-2.35424,-2.16243,-1.62390
1.99676,0.84071,-1.13623,-2.60420,-2.29280,-1.27126
1.99260,0.99442,-1.60089,-2.88107,-2.19684,-1.27205
1.84951,0.89436,-1.63182,-2.78913,-2.21539,-1.50283
2.25285,0.98543,-1.41493,-2.74144,-1.81016,-0.86810
2.31806,0.90320,-1.58653,-2.85635,-1.79097,-0.85983
2.05740,0.60715,-1.83573,-2.89291,-1.58242,-0.55754
2.27018,0.53613,-2.08478,-3.16170,-1.46697,-0.60607
1.98760,0.51760,-2.11545,-3.07998,-1.67344,-0.43956
2.03172,0.39075,-2.28061,-2.81127,-1.35129,-0.19162
2.25540,0.31077,-2.13349,-2.82335,-1.06399,-0.12423
2.13572,0.00754,-2.50134,-2.89217,-1.12887,-0.30234
1.99637,-0.12560,-2.52779,-3.27721,-1.32793,-0.03827
1.77493,-0.39685,-2.36877,-3.15266,-1.07383,-0.19011
1.88290,-0.28725,-2.59452,-2.94707,-0.68310,0.23385
2.15248,-0.03464,-2.30509,-2.99748,-0.56259,0.75776
1.78368,-0.41732,-2.24655,-2.80428,-0.19562,0.72126
1.56134,-0.66846,-2.85926,-3.21668,-0.45822,0.43171
1.59446,-0.86926,-2.80608,-3.09591,-0.01308,0.63772
1.87555,-0.72343,-2.68263,-2.75779,-0.08351,0.82120
2.08548,-0.68725,-2.68331,-2.56869,0.41810,1.13398
2.04520,-0.85361,-2.82095,-2.09340,0.40866,0.98032
1.72490,-1.07883,-3.18826,-2.08437,0.51018,0.75670
1.20284,-1.55945,-3.46800,-2.12049,0.47520,0.74162
1.37403,-1.45819,-3.29111,-2.29579,0.56213,0.73623
1.41286,-1.57479,-3.03887,-1.75457,0.46445,0.86007
1.27093,-1.58045,-2.80797,-1.79215,0.87511,0.98328
1.01089,-1.61526,-2.93900,-1.72101,0.68700,0.99578
0.56792,-1.85750,-2.91733,-1.91023,0.62108,1.10465
0.65723,-1.74718,-3.12947,-1.68022,0.80035,0.87721
0.76624,-1.72542,-2.73653,-1.31296,1.00882,1.36834
0.53299,-1.98896,-2.96371,-1.07603,1.13639,1.43268
0.37838,-1.99181,-2.73779,-1.39207,0.87791,1.28972
0.21570,-2.27096,-3.04857,-1.32981,1.10925,1.36477
0.12574,-2.30689,-2.94467,-1.12830,0.82918,1.09519
0.09761,-2.11865,-2.46282,-0.85427,1.16685,1.60204
-0.06491,-2.09279,-2.58981,-0.49334,1.15488,1.72791
-0.38199,-2.35626,-2.36721,-0.78605,1.15747,1.33070
-0.25723,-2.46893,-2.71485,-0.78525,0.77764,1.45783
-0.48907,-2.36682,-2.30477,-0.66644,1.11256,1.66971
-0.23192,-2.25422,-1.98434,-0.28907,1.25915,2.01425
-0.16776,-1.90593,-1.81038,-0.36944,1.40921,1.99136
-0.36988,-1.86197,-1.97700,-0.34681,1.65232,2.02478
-0.46784,-2.12427,-2.04660,-0.55086,1.27773,2.23212
-0.71352,-2.15579,-1.88443,-0.47020,1.57477,2.29225
-0.46831,-1.90192,-1.61597,-0.04108,2.01250,2.29056
-0.10822,-1.83093,-1.80325,0.44712,2.20115,2.54509
-0.34728,-1.99329,-1.83949,0.22929,2.03530,2.41377
-0.58743,-2.10744,-1.76904,0.11670,2.01073,2.47527
-0.58357,-2.16014,-1.82069,0.03431,1.82579,2.19524
-0.82203,-2.11914,-1.85210,0.24491,2.26965,2.48023
-0.38558,-1.93123,-1.47887,0.68584,2.42377,2.74627
-0.60652,-2.10708,-1.59021,0.51686,2.27548,2.60070
-0.85431,-2.43999,-1.59884,0.33195,2.39687,2.59006
-0.78822,-2.38935,-1.55660,0.30513,2.35876,2.48334
-0.96117,-2.21567,-1.42280,0.38424,2.39349,2.80359
-0.98173,-2.07472,-1.49287,0.92628,2.69957,2.80060
-0.68710,-2.12385,-1.44015,0.72222,2.53529,3.01123
-1.01251,-2.32590,-1.45558,0.92627,2.81609,2.92237
-1.28229,-2.67572,-1.40997,0.96470,2.69011,2.61106
-1.25066,-2.57684,-1.56554,1.29618,2.96420,2.83465
-1.12554,-2.60107,-1.26925,1.39006,2.74677,2.73800
-1.41538,-2.47020,-1.06706,1.48215,2.66780,2.53847
-1.66690,-2.72763,-1.30696,1.43943,2.80778,2.52105
-2.03006,-2.83589,-1.16725,1.19682,2.59959,2.40762
-1.99435,-2.44436,-0.85507,1.62154,2.75892,2.35587
-1.91066,-2.24195,-0.59026,1.79059,2.82921,2.77335
-1.89546,-2.19199,-0.17266,1.68487,2.94417,2.74921
-1.97834,-2.21099,-0.59442,1.63923,2.74704,2.44212
-2.28450,-2.48338,-0.48954,1.75741,2.67474,2.23211
-2.05681,-2.21707,-0.22505,2.08798,2.80258,2.23163
-1.91775,-2.04011,-0.03373,2.36137,2.84896,2.15546
-1.88460,-1.75150,0.09943,2.77481,2.82677,2.23647
-2.14056,-2.02826,0.19535,2.82268,2.93903,1.78513
-2.19489,-2.12124,0.05128,2.53859,2.28524,1.76027
-2.53606,-2.04321,0.12043,2.84489,2.27485,1.64755
-2.42165,-2.09239,0.65698,2.96514,2.30400,1.40250
-2.25373,-1.76034,0.67737,3.25025,2.44661,1.60925
-2.24463,-1.72912,1.03230,2.91316,2.25529,1.35000
-2.58483,-1.77005,0.77648,2.65999,2.05993,1.37282
-2.48930,-1.52095,1.05879,2.84179,1.78800,1.18118
-2.24265,-1.46271,1.21194,3.00690,1.98600,1.52393
-2.28930,-0.94209,1.39477,3.20824,1.79589,1.43933
-2.20894,-0.88089,1.34733,3.02593,1.84624,1.41246
-2.34557,-1.13996,1.29108,3.13737,1.68990,1.07805
-2.28623,-1.13359,1.57908,2.83891,1.59190,0.87279
-2.35222,-0.65658,1.73435,2.95618,1.70493,1.07498
-2.15886,-0.57948,2.02143,3.28665,1.37629,0.97604
-2.26323,-0.63090,1.93202,2.95443,1.36689,0.96500
-2.46116,-0.62770,2.02356,2.51552,1.02099,0.76495
-2.54781,-0.56778,2.09584,2.79842,0.97232,0.80704
-2.11013,-0.15359,2.33649,2.71180,1.21841,0.97363
-1.77296,0.23107,2.61249,2.79720,1.34118,1.08819
-1.88216,0.30704,2.32340,2.54378,1.29057,1.16797
-1.80540,0.06742,2.43472,2.28489,1.15043,0.65825
-1.73328,0.24368,2.20887,2.19447,1.20410,0.76506
-1.58619,0.46477,2.42833,2.57846,1.29426,0.88097
-1.40005,0.73621,2.73881,2.68837,1.50381,0.73073
-1.08749,0.74306,2.41674,2.56080,1.46137,0.74089
-1.53335,0.61846,2.20340,2.32362,1.11238,0.27490
-1.38355,0.41927,2.04736,2.20953,0.99682,0.17539
-1.42295,0.41382,2.06028,2.58081,0.93806,0.11849
-1.31426,0.60965,2.31354,2.39246,0.77044,0.00828
-1.30257,0.91703,2.47096,2.28872,0.90138,0.00682
-1.16711,0.86599,2.57479,2.05120,0.42622,-0.28203
-1.20048,0.89629,2.20380,2.01831,0.41564,-0.25606
-1.19880,0.83620,2.41899,2.09290,0.39210,-0.36919
-1.08507,1.14718,2.47408,2.31625,0.37309,-0.22010
-0.93500,1.16509,2.72132,2.04004,0.31203,-0.44429
-1.02061,0.92221,2.29782,1.88116,0.32131,-0.62531
-1.03403,0.98822,2.43077,2.09765,0.11518,-0.78703
-0.91138,1.11048,2.54262,2.16570,0.05260,-0.88670
-0.91310,1.19790,2.70100,2.30139,-0.27632,-1.16419
-1.12301,1.28674,2.65175,1.96407,-0.08277,-1.10958
-0.96161,1.09329,2.44000,1.94573,-0.62561,-1.24370
-1.08069,1.18645,2.65193,1.67829,-0.83935,-1.67883
-0.87853,1.34094,2.63722,1.71931,-0.98255,-1.49885
-0.88109,1.62517,3.06587,1.77036,-0.75230,-1.40464
-0.50931,1.70339,3.09818,1.70831,-0.78476,-1.34535
-0.60879,1.77487,3.19070,1.45322,-0.91810,-1.71251
-0.75440,1.93732,2.72498,1.26120,-1.23046,-1.71008
-0.63557,1.86836,2.75354,1.53690,-1.15857,-1.80635
-0.37225,2.37509,3.01346,1.71627,-1.14699,-1.91782
0.19401,2.36751,3.16398,1.77538,-1.27263,-1.76917
-0.07083,2.35175,2.94466,1.46066,-1.34897,-1.93352
-0.27702,2.41046,2.82184,1.20724,-1.74327,-2.38538
0.08996,2.46883,2.52197,0.94256,-1.90891,-2.36820
0.14295,2.33410,2.93956,1.06229,-1.94536,-2.08812
0.33966,2.70938,3.02010,1.17861,-1.98502,-2.23364
0.59875,2.77821,2.81374,0.63686,-1.81057,-2.12442
0.59464,2.76831,2.70775,0.40966,-2.29365,-2.48083
0.37001,2.83338,2.57591,0.10765,-2.11569,-2.27558
0.66938,2.85517,2.64709,0.31051,-2.36782,-2.26484
0.97840,3.15059,2.47754,0.20370,-2.24489,-2.01450
1.32402,2.93821,2.48185,0.17649,-2.17872,-1.96688
1.09801,3.02712,2.08590,-0.15565,-2.34788,-2.08518
1.03510,2.85944,1.83384,-0.37277,-2.43287,-2.14415
1.30538,2.86681,2.00984,-0.35679,-2.05706,-1.90686
1.68748,2.90800,2.14214,-0.51603,-1.94670,-2.02034
1.49535,2.86086,1.86281,-0.65595,-2.13749,-1.95680
1.33402,2.64458,1.59858,-1.02102,-2.35198,-2.12473
1.60017,2.58783,1.60836,-1.39268,-2.43231,-2.03393
1.47552,2.69095,1.51456,-1.29559,-2.28002,-1.96664
2.00693,3.17524,1.52087,-1.31849,-2.10923,-1.76155
1.78682,2.83266,1.42943,-1.43565,-2.09939,-1.79742
1.70359,2.84474,1.12585,-1.45906,-2.17824,-2.10750
2.01424,2.52278,0.98436,-1.56829,-2.28239,-1.97273
2.23703,2.66667,1.09091,-1.61972,-1.79797,-1.89626
2.28970,2.96820,0.91044,-1.20915,-1.75574,-1.53356
2.27453,2.86031,0.80055,-1.48638,-1.57942,-1.77660
2.22080,2.32364,0.28346,-1.41106,-1.87648,-2.08065
2.17699,2.24305,0.26910,-1.65821,-2.07944,-2.24121
2.25277,1.91504,0.03030,-1.77351,-2.13719,-2.22000
2.21495,2.11015,0.13408,-1.77512,-1.85243,-2.01595
2.11868,2.37196,0.40976,-1.52116,-1.98394,-2.09957
2.17460,1.95290,-0.04608,-1.64242,-2.11279,-2.21052
1.84367,1.97838,-0.03720,-2.04853,-2.48092,-2.12687
2.07797,1.95649,-0.29074,-2.08933,-2.28372,-2.08864
2.24627,1.77200,0.00272,-2.03180,-2.07786,-2.13721
2.44570,1.86519,0.03291,-1.95075,-2.00296,-2.06976
2.26741,1.86351,-0.13420,-2.16490,-2.34929,-2.14085
2.03933,1.68923,-0.58454,-1.99467,-2.44831,-2.08811
2.03472,1.43224,-0.61845,-2.15297,-2.39750,-2.19268
2.34626,1.48829,-0.34657,-2.06933,-2.11950,-2.07423
2.12574,1.66344,-0.51850,-1.84769,-2.25569,-1.71980
2.07878,1.13447,-0.69414,-2.16916,-2.20480,-2.05668
1.83868,1.28967,-0.93391,-2.51605,-2.48230,-1.84486
1.68839,1.31899,-0.73929,-2.24885,-2.33170,-1.82026
2.13262,1.25519,-0.54267,-2.23426,-2.28571,-1.38682
2.05965,1.60502,-0.60811,-2.28470,-2.13768,-1.11876
2.21088,1.48775,-0.62581,-2.49113,-2.00542,-1.15531
1.94926,1.27189,-0.80984,-2.85712,-2.09599,-1.09745
1.92650,1.10935,-1.09936,-2.63411,-1.77188,-1.20707
2.52926,1.24740,-0.98261,-2.67670,-1.63814,-0.62847
2.50737,1.32155,-1.13994,-2.41487,-1.44750,-0.62886
2.58373,1.02955,-1.30514,-2.24321,-1.42390,-0.45779
2.43783,0.97900,-1.55197,-2.53551,-1.41236,-0.63293
2.37394,0.62024,-1.69423,-2.77405,-1.34416,-0.74058
2.27604,0.66712,-1.79679,-2.59225,-1.21537,-0.34835
2.67608,0.83220,-1.77136,-2.70446,-0.95197,-0.20325
2.43433,0.57529,-1.95878,-2.82489,-0.86298,-0.01653
2.28495,0.51802,-2.24568,-2.92242,-1.02823,0.01747
2.31679,0.19372,-2.44664,-2.94142,-1.15101,0.03803
2.30280,0.24572,-2.23931,-2.87471,-0.76202,0.18292
2.47142,0.26650,-2.25967,-2.79481,-0.58136,0.29439
2.46690,0.02478,-2.61049,-2.69585,-0.49153,0.61290
2.21324,-0.20509,-2.66771,-2.83094,-0.40684,0.37336
1.95647,-0.53633,-2.90935,-2.87004,-0.36439,0.37861
1.95718,-0.71310,-2.69374,-2.60625,-0.16485,0.42292
1.80002,-0.53665,-2.81951,-2.64424,0.20380,0.73250
1.88025,-0.91381,-3.10652,-2.51108,-0.08043,0.78381
1.59931,-1.39524,-3.26552,-2.85829,-0.21122,0.43210
1.13316,-1.33960,-2.99318,-2.89163,-0.11878,0.61389
1.22939,-1.44794,-2.83716,-2.57349,-0.00605,0.87935
1.41861,-1.28309,-2.64681,-2.41199,0.52955,0.93956
1.24363,-1.37116,-2.60696,-2.23363,0.39196,1.23168
1.04529,-1.34702,-3.11700,-2.39985,0.43911,1.04015
0.71322,-1.73566,-3.10708,-2.25875,0.50038,0.98187
0.79722,-1.77442,-3.19591,-1.83581,0.75463,1.05064
0.77855,-1.67638,-2.89020,-1.56359,1.06827,1.42031
0.78814,-1.44776,-2.73775,-1.36337,0.97998,1.49398
0.56879,-2.06168,-2.83603,-1.28155,0.92965,0.99677
0.44836,-2.22067,-3.32838,-1.31416,0.69813,1.07993
0.21991,-2.41139,-2.99109,-1.32406,0.95396,0.93266
0.28523,-2.29483,-2.75504,-1.09514,1.06349,1.05847
0.21270,-2.28088,-2.61107,-0.97283,1.11531,1.16728
-0.19510,-2.19216,-2.80465,-0.79610,0.85444,1.37812
-0.13596,-2.62944,-2.93285,-1.13296,0.71433,1.12041
-0.32103,-2.41552,-2.72072,-0.99538,0.77043,1.15669
-0.48668,-2.23853,-2.59842,-0.95360,1.09499,1.40603
-0.35128,-2.14133,-2.52555,-0.49554,1.06683,1.72132
-0.45737,-2.49740,-2.30270,-0.47078,1.19587,1.58011
-0.46733,-2.44148,-2.53797,-0.58720,1.09401,1.52064
-0.70883,-2.75063,-2.46341,-0.55594,0.99650,1.72760
-0.73265,-2.53799,-2.36333,-0.24776,1.47068,1.60505
-0.53918,-2.61470,-2.26944,-0.11718,1.25627,1.88129
-0.89276,-2.73879,-2.14183,-0.31424,1.21771,2.02669
-1.08537,-2.71217,-2.29709,-0.44606,1.24723,1.82343
-1.16387,-2.73995,-2.29836,-0.60274,1.50435,2.07289
-1.18913,-2.42072,-2.07648,-0.21649,1.42345,2.27211
-1.14883,-2.38998,-1.70519,0.02447,1.66775,2.43698
-1.10716,-2.20078,-1.81456,0.02396,1.84631,2.28833
-1.17239,-2.42285,-1.82423,-0.09220,1.61318,2.21945
-1.16459,-2.44307,-1.87922,-0.04652,2.06636,2.16216
-0.98916,-2.57310,-1.89331,0.21494,2.04096,2.54594
-0.88929,-2.43690,-1.67268,0.26948,2.52342,2.57689
-1.07370,-2.33445,-1.61497,0.39056,2.49036,2.74070
-1.47894,-2.73989,-1.94191,0.58737,2.21300,2.37106
-1.62484,-2.69251,-2.02345,0.35171,2.06821,2.32532
-1.65904,-2.97575,-2.08873,0.41608,2.16069,2.07208
-1.36259,-2.85598,-1.69604,0.95010,2.38390,2.41902
-1.72117,-2.58580,-1.56680,0.79045,2.31549,2.47626
-1.74346,-2.75359,-1.46621,0.62226,2.26551,2.17347
-2.10708,-2.86022,-1.71187,0.93191,2.29706,1.94982
-2.01537,-2.70696,-1.49470,0.74800,2.43619,2.03277
-2.08747,-2.61744,-1.23515,1.14867,2.44843,2.08285
-1.85076,-2.66313,-1.14399,1.36691,2.61301,2.23484
-2.05117,-2.70796,-1.40274,1.27866,2.47923,2.11993
-2.14363,-2.83403,-1.12502,1.51217,2.44272,1.90678
-2.18261,-2.96799,-0.91815,1.55826,2.52160,1.74180
-2.36911,-2.96383,-0.69976,1.82541,2.27623,1.93320
-2.41643,-2.90377,-0.53156,1.87649,2.11019,1.71679
-2.93010,-3.01220,-0.66481,1.85145,2.15708,1.60873
-3.16915,-3.14980,-0.76533,1.90797,1.98603,1.37819
-2.82798,-2.72703,-0.35763,2.04043,1.88655,1.20052
-2.68428,-2.28284,0.26518,2.23174,2.08739,1.54519
-3.03289,-2.44927,0.54476,2.41781,2.18939,1.67785
-2.88224,-2.07888,0.19675,2.08892,1.83579,1.39954
-3.12555,-2.34803,0.17293,1.91580,1.80764,1.21002
-2.99288,-2.14207,0.34048,2.09551,1.83855,1.18912
-2.63365,-1.97242,0.62892,2.56755,1.89873,1.34631
-2.67448,-1.66984,0.80102,2.65595,1.70382,1.39394
-2.85666,-1.55786,0.74432,2.83289,1.54402,1.04039
-2.98663,-1.93902,0.85094,2.57038,1.20019,0.77044
-2.80160,-1.49560,0.68417,2.47717,1.14485,0.51105
-2.86268,-1.51669,1.01982,2.60805,1.11558,0.47090
-2.47502,-1.15107,1.26248,2.94538,1.26144,0.55416
-2.63836,-0.88935,1.43248,2.84918,1.05900,0.74492
-2.81893,-1.06682,1.53171,2.28451,0.80701,0.47100
-2.60357,-0.84838,1.62638,2.16555,0.63887,0.28567
-2.43288,-0.69309,1.64886,2.42000,0.85605,0.46989
-2.22850,-0.31375,1.70335,2.55912,0.76744,0.53930
-2.25971,-0.47705,1.73019,2.40905,0.88940,0.51091
-2.18653,-0.58144,1.79209,2.26664,0.56931,0.39199
-2.14821,-0.28116,1.51451,2.21097,0.76375,0.42268
-2.13758,-0.19655,1.64066,2.33036,0.93090,0.23260
-2.09447,-0.14303,2.06898,2.23119,0.80379,0.47853
-2.24561,-0.00581,2.04614,2.30050,0.71719,0.23649
-2.01557,-0.38436,1.79127,1.99741,0.56340,-0.17598
-2.19280,-0.09086,2.06681,1.68853,0.29295,-0.03151
-1.80297,0.04525,2.24310,1.77503,0.50809,0.26924
-1.69550,0.25995,2.44958,1.90513,0.74293,0.14695
-1.52977,0.33764,2.32523,1.98595,0.74401,-0.00663
-1.69147,0.36342,2.03694,1.86469,0.42075,-0.20983
-1.68655,0.19657,2.01803,1.73208,0.11811,-0.35085
-1.31528,0.56278,2.32463,1.74650,0.50930,-0.42900
-1.00064,0.99068,2.43630,2.10467,0.53405,-0.35150
-1.07002,0.79455,2.50306,2.16046,0.38357,-0.28421
-1.47932,0.81410,2.15064,1.90232,0.04310,-0.64526
-1.58753,0.70441,2.03696,1.78112,-0.21608,-0.94849
-1.18129,0.57661,2.16060,2.08819,-0.19456,-1.09625
-1.14567,0.99366,2.52544,1.88682,-0.16901,-1.11691
-1.09966,1.20264,2.44211,2.17813,-0.26102,-1.06606
-0.99563,1.00398,2.26630,1.90170,-0.57008,-1.29059
-1.09119,1.04880,2.36445,1.56270,-0.87870,-1.46471
-1.17507,1.08207,2.42409,1.60389,-0.81177,-1.68015
-1.10821,1.26983,2.64707,1.86201,-0.91101,-1.65220
-0.77873,1.31144,2.72669,1.61040,-0.72329,-1.74084
-0.80298,1.60452,2.47692,1.65630,-0.83504,-1.91901
-0.74940,1.28596,2.53761,1.71635,-1.22943,-1.86491
-0.59669,1.43806,2.64535,1.35915,-1.27784,-1.88915
-0.72634,1.76008,2.57084,1.61447,-1.06572,-1.99643
-0.54964,1.80603,2.82362,1.54880,-1.35283,-1.98105
-0.67958,1.87841,2.61404,1.29589,-1.47848,-2.26642
-0.62372,2.00237,2.69640,1.16609,-1.98760,-2.26424
-0.52888,2.04914,2.96170,1.10266,-1.70875,-2.38434
-0.27565,2.51055,3.08115,1.18715,-1.78186,-2.19348
0.01671,2.66353,3.33876,1.13312,-1.89644,-1.98423
-0.00682,2.84197,3.17017,0.68674,-2.02198,-1.83642
-0.03530,2.40679,2.99825,0.52600,-2.03946,-2.18051
0.50878,2.81340,2.76527,0.25884,-1.87416,-2.06342
0.64894,2.85706,3.04218,0.60109,-1.84950,-2.03672
1.01637,3.29901,3.11893,0.53772,-1.65880,-1.66377
1.19307,3.27385,2.87651,0.66683,-1.95546,-2.04582
0.82872,2.87049,2.43369,0.31846,-2.16953,-2.17451
1.04226,2.79836,2.08035,0.15858,-2.03954,-2.19893
1.11009,2.94150,2.29972,0.07984,-2.25771,-2.20510
1.66770,3.02712,2.30600,0.00504,-1.80172,-2.08063
1.72334,3.10747,2.39536,-0.29841,-1.85451,-1.96630
1.53691,3.10770,2.16266,-0.74000,-2.25873,-2.04148
1.43413,3.10916,1.85255,-0.89358,-2.03604,-1.97420
1.86926,3.28093,1.75778,-0.73701,-2.25773,-1.92287
1.92983,3.05240,1.65717,-0.95007,-2.07339,-1.89699
2.03024,3.27362,1.64057,-1.02305,-1.75059,-1.73006
2.10917,3.07805,1.23577,-1.06075,-1.81089,-1.95005
2.20502,2.72271,1.31292,-1.20704,-1.78757,-1.87252
2.28193,2.87816,1.23966,-1.01783,-1.73302,-1.64386
2.47250,2.73558,1.25443,-1.21615,-1.70917,-1.86742
2.29775,2.69174,1.01893,-1.26965,-1.90085,-1.85182
2.19595,2.54403,0.88169,-1.45929,-2.02015,-1.94917
2.22438,2.45961,0.71649,-1.77588,-1.93791,-1.91914
2.38968,2.37435,0.79056,-1.58902,-1.88658,-1.66339
2.59268,2.60681,1.04721,-1.30298,-1.84869,-1.54482
2.39080,2.69007,1.00540,-1.39593,-1.52758,-1.68920
2.31730,2.55954,0.81398,-1.50321,-1.96154,-1.73056
2.36535,2.50498,0.26883,-1.93572,-1.97296,-1.79268
2.43269,2.28155,0.58835,-1.63727,-1.85695,-1.51138
2.72637,2.57985,0.54743,-1.38100,-1.51001,-1.49795
2.81416,2.74174,0.45765,-1.11766,-1.51189,-1.35668
2.72017,2.11996,0.19202,-1.27863,-1.76338,-1.65871
2.43136,1.84899,0.02215,-1.66720,-1.71320,-1.90465
2.51100,2.12363,-0.23554,-1.64235,-1.87793,-1.77936
2.57553,2.14212,0.19189,-1.23967,-1.89858,-1.74228
2.78576,2.26490,0.26191,-1.27846,-1.58283,-1.40204
2.64784,1.88417,0.05511,-1.76051,-1.83744,-1.38034
2.31196,1.79176,-0.18839,-1.77218,-1.90303,-1.47741
2.59273,1.66855,-0.31202,-1.86601,-1.86709,-1.31592
2.79072,1.77458,-0.28652,-1.84173,-1.77583,-1.18424
2.66887,1.99293,-0.10097,-1.57226,-1.79118,-1.12580
2.54378,1.78719,-0.34097,-1.71446,-1.83285,-1.11495
2.72331,1.50412,-0.62186,-1.87233,-1.87409,-1.08757
2.49448,1.62596,-0.87183,-2.00872,-1.48709,-1.02199
2.89898,1.80997,-0.82687,-2.06833,-1.60081,-0.83271
2.84002,1.65990,-0.59259,-1.86849,-1.32739,-0.53224
2.50129,1.61036,-0.69186,-2.07762,-1.47648,-0.67991
2.51665,1.16321,-1.15961,-2.24344,-1.51883,-0.67880
2.27616,1.06156,-1.09954,-2.48556,-1.41350,-0.33501
2.80034,1.23282,-0.87195,-2.22124,-1.26688,-0.04788
2.96071,1.27861,-0.93557,-2.34600,-0.84539,0.34653
2.66335,1.52745,-0.92768,-2.45217,-0.92525,0.49490
2.61474,1.06897,-1.36406,-2.66570,-0.85984,0.22744
2.78734,0.88676,-1.44137,-2.78305,-0.64754,0.55737
2.97938,1.08410,-1.54730,-2.51313,-0.10513,0.77330
3.09579,1.02972,-1.65079,-1.99709,0.07966,0.85160
2.85369,0.92746,-1.86781,-2.10208,-0.07957,0.89266
2.55357,0.45147,-1.96065,-2.44848,-0.03022,0.82265
2.55701,0.08849,-2.12871,-2.32958,-0.13622,0.80249
2.37563,0.09229,-2.18611,-2.42022,0.07738,0.84881
2.59872,0.27810,-2.29837,-2.04699,0.51878,0.89507
2.65540,0.05273,-2.28303,-2.22503,0.55811,1.08831
2.12958,-0.40168,-2.55696,-2.34318,0.20902,0.83953
2.04734,-0.57104,-2.71165,-2.07799,0.48266,1.04704
2.15350,-0.46386,-2.50080,-2.11935,0.53088,1.10852
2.15486,-0.69989,-2.46320,-2.12978,0.75614,1.49915
1.96109,-0.80230,-2.75021,-1.70592,0.91903,1.34618
1.90778,-1.10893,-2.77278,-1.75697,1.02796,1.18436
1.39929,-1.06464,-2.82956,-1.86206,0.64884,1.33032
1.55156,-1.11446,-2.93511,-1.62667,1.01444,1.45626
1.37846,-1.45292,-2.50320,-1.29414,1.07761,1.30728
1.35932,-1.39168,-2.64723,-1.37568,0.94546,1.60050
0.99239,-1.94014,-2.89237,-1.49429,0.89962,1.31119
0.76686,-1.96621,-2.66727,-1.61084,0.83500,1.37874
0.51431,-1.97644,-2.41480,-1.27169,0.87800,1.59315
0.49419,-1.56144,-2.36867,-0.92359,1.13870,1.81633
0.69321,-1.42715,-2.31671,-1.01583,1.27706,1.81746
0.16231,-1.78890,-2.12834,-1.06557,1.30653,1.54560
-0.02128,-1.94135,-2.25906,-1.09843,1.22282,1.42625
0.12731,-1.91041,-2.33785,-0.76923,1.35199,1.77614
0.25137,-1.83694,-2.28694,-0.61260,1.76779,2.08604
0.22809,-1.53668,-2.01751,-0.26753,1.93387,2.12743
0.06445,-1.94038,-2.20487,-0.18043,1.66616,1.97890
-0.11994,-2.04667,-2.57535,-0.42008,1.38244,1.73988
-0.22511,-2.38950,-2.30627,-0.40744,1.43654,1.52978
-0.13055,-2.33184,-2.25136,-0.07300,1.62513,1.66085
-0.28203,-1.98524,-1.79115,-0.04186,1.66749,2.18523
-0.50875,-1.95862,-1.91263,-0.05040,1.45487,2.21282
-0.66199,-2.12783,-2.11013,0.01448,1.47844,1.80830
-0.53584,-2.48723,-2.16925,-0.20719,1.57514,2.20633
-0.46702,-2.28086,-1.83161,-0.15080,1.79445,2.14695
-0.62888,-2.22875,-1.95592,-0.02370,1.77103,2.31606
-0.56461,-2.19372,-1.92032,0.05940,1.85812,2.34535
-0.89700,-2.22587,-2.00280,-0.03441,1.68444,2.43454
-0.68367,-2.45335,-2.20751,0.18865,1.86568,2.52738
-1.05800,-2.45929,-1.77637,0.20937,2.23024,2.40150
-0.78927,-2.57747,-1.81835,0.53770,2.12584,2.63949
-1.28922,-2.63365,-1.78306,0.10869,2.07968,2.55429
-1.38964,-2.85680,-2.10321,0.30726,2.08765,2.34484
-1.37510,-2.84413,-1.69043,0.13692,1.84828,2.39764
-1.32293,-2.43231,-1.73735,0.28017,2.28961,2.68231
-1.35642,-2.48152,-1.43307,0.44434,2.38268,2.63426
-1.29775,-2.65907,-1.47938,0.50680,2.55538,2.83774
-1.65091,-2.55380,-1.73902,0.32938,2.37626,2.57804
-1.86243,-2.86926,-1.76390,0.29527,2.56054,2.51503
-1.76198,-2.59816,-1.30534,0.66640,2.59614,2.57524
-1.75757,-2.55246,-1.18012,0.98748,2.81526,2.68844
-1.58378,-2.64742,-1.09012,1.33815,2.71273,2.57018
-1.89262,-2.82840,-1.48374,1.14373,2.42182,2.26154
-2.29474,-3.24761,-1.46611,1.13641,2.53966,1.81898
-2.25066,-2.89013,-1.55721,1.26663,2.30260,1.75495
-2.40824,-3.04477,-0.89400,1.76788,2.51537,1.83360
-2.50478,-2.93841,-0.99554,1.65594,2.31555,1.70304
-2.43321,-2.93352,-0.69143,1.66282,1.97396,1.56448
-2.88058,-2.89742,-1.02273,1.59724,2.12283,1.26963
-2.82063,-3.02583,-0.59830,1.64992,1.72980,1.36377
-2.72151,-2.78226,-0.26825,1.98338,1.95679,1.21307
-2.76748,-2.45249,-0.41346,2.10785,1.80504,1.31683
-3.02655,-2.64626,-0.18304,1.91187,1.81399,1.27248
-3.14107,-2.52293,-0.25578,1.97118,1.43747,1.01664
-3.25252,-2.45203,-0.03595,2.22462,1.58554,0.83129
-3.06076,-2.40834,0.21738,2.51660,1.43198,0.81547
-3.11763,-2.20080,0.22845,2.50605,1.38738,0.92305
-3.26562,-2.44541,0.20006,2.03027,1.32724,0.65659
-3.39730,-2.25776,0.19005,1.94762,0.89919,0.44145
-3.46676,-2.19625,0.63745,2.12713,0.97839,0.54933
-3.25073,-1.75425,1.13924,2.08724,0.97304,0.67278
-3.12017,-1.46225,1.41631,2.22285,1.11957,0.88966
-3.10407,-1.68267,1.18562,2.33927,0.88554,0.73501
-3.05428,-1.70648,0.92916,1.88471,0.67147,0.37105
-3.31172,-1.35237,0.95939,2.08178,0.61136,0.45460
-2.79345,-1.18812,1.46193,2.23880,0.75219,0.58234
-2.49783,-0.97102,1.51914,2.64430,1.01550,0.71692
-2.42792,-0.70728,1.51555,2.44442,0.94052,0.39419
-2.74134,-1.13770,1.31791,2.09501,0.40094,0.10413
-2.61535,-1.13808,1.14186,2.09895,0.60644,-0.24303
-2.62530,-0.63188,1.30749,2.23028,0.39079,0.03718
-2.20970,-0.58826,1.71031,2.07095,0.61341,-0.12793
-2.52319,-0.40692,1.50557,2.15864,0.37291,0.11357
-2.62429,-0.63687,1.45832,1.79859,0.28598,-0.11388
-2.52798,-0.55983,1.42787,1.60945,0.10140,-0.33003
-2.20955,-0.52534,1.49936,1.71697,-0.03723,-0.36725
-2.16662,-0.24487,1.55515,1.58945,0.11321,-0.39787
-2.19213,-0.09812,1.43308,1.66245,0.38893,-0.37377
-2.24367,-0.13693,1.38666,1.66814,0.01664,-0.36351
-2.13465,-0.31181,1.32292,1.34408,-0.21092,-0.51217
-1.97498,-0.24865,1.69080,1.59354,-0.10901,-0.55117
-1.79501,-0.20825,1.58784,1.66384,0.14206,-0.89112
-1.79223,0.13196,1.84593,1.70208,0.01682,-0.73678
-2.26909,0.00623,1.62825,1.21984,-0.62632,-1.09197
-1.99795,-0.13694,1.80101,1.13001,-0.44326,-1.39028
-2.15736,0.09743,1.93495,1.41110,-0.67372,-1.29617
-1.85393,0.59811,2.12141,1.18474,-0.39640,-1.29091
-1.82653,0.51282,2.20509,1.40978,-0.36636,-1.04085
-1.79380,0.36942,2.17172,1.13235,-0.89582,-1.40947
-1.83669,0.56117,2.09851,0.90082,-0.96999,-1.70560
-1.82044,0.59124,2.06298,1.34174,-1.00235,-1.77230
-1.25660,1.07595,2.41023,1.29679,-0.82999,-1.71696
-1.31818,1.19403,2.26652,1.40785,-0.66215,-1.79560
-1.21076,0.97954,2.09730,1.34723,-1.18464,-2.25324
-1.33265,0.82601,1.87775,1.05984,-1.25344,-2.35331
-1.32805,0.89844,1.97231,1.11264,-1.68128,-2.69900
-1.07692,1.20968,2.27974,1.30714,-1.56085,-2.49033
-1.07037,1.51261,2.39439,1.50554,-1.57374,-2.56541
-1.07644,1.30292,2.27823,0.96537,-1.98954,-2.33094
-1.10799,1.52040,2.23052,0.97069,-2.16720,-2.59442
-0.86903,1.37168,2.37810,0.58383,-2.13478,-2.87464
-0.59988,1.75363,2.36493,0.59773,-1.96800,-2.51166
-0.56731,2.03064,2.39444,0.84324,-2.21379,-2.42283
-0.44004,2.12535,2.38462,0.41173,-2.19909,-2.74532
-0.51778,1.95472,2.06821,0.42519,-2.19331,-2.73334
-0.20990,2.01560,2.24285,0.35791,-2.42032,-2.70583
0.07327,2.15767,2.20952,0.54675,-2.28299,-2.60678
-0.03926,2.08819,2.54403,0.43376,-2.25627,-2.43372
0.27307,2.38973,2.38268,0.12096,-2.46817,-2.55326
-0.07455,2.08990,2.06087,-0.32442,-2.73003,-2.66461
0.36705,2.16865,2.08966,-0.42932,-2.63036,-2.42561
0.58860,2.43471,2.30130,-0.30716,-2.66060,-2.30954
0.67624,2.94878,2.34072,-0.30521,-2.39444,-2.31526
0.72850,2.80957,2.31874,-0.88973,-2.50421,-2.11453
0.75538,2.72136,2.04550,-1.14953,-2.59504,-2.21772
0.87731,2.66016,1.76134,-0.99944,-2.33920,-2.44115
1.21828,2.83279,1.76005,-0.88901,-2.11632,-1.88126
1.52005,3.15596,1.73194,-0.58885,-1.93249,-1.96899
1.78105,2.95929,1.53138,-0.95118,-2.11473,-2.10015
1.56084,2.55380,1.41094,-1.00363,-2.13994,-2.20030
1.59119,2.70758,0.96381,-1.13566,-2.35710,-2.18253
1.79833,2.53350,0.87956,-1.47381,-2.09855,-2.19306
2.16396,2.61702,1.14088,-1.01859,-2.15226,-2.01687
2.22071,2.77963,1.05616,-1.34795,-2.19984,-2.24759
2.10043,2.59593,0.84561,-1.56912,-2.30160,-2.30377
1.95495,2.28361,0.79927,-1.69922,-2.40926,-2.07222
2.16592,2.38215,0.42274,-1.65761,-2.28937,-1.96262
2.32143,2.59763,0.74765,-1.49186,-1.88013,-1.79601
2.39022,2.44381,0.43752,-1.40584,-1.85048,-1.89695
2.27803,2.26422,0.27405,-1.80491,-2.17710,-2.20474
2.20387,2.27316,0.06236,-1.71989,-2.30142,-2.16564
2.27605,1.99588,0.33613,-1.63016,-2.08688,-2.22596
2.41198,2.05258,0.40758,-1.54188,-2.03242,-1.78133
2.43893,2.12411,0.20045,-1.68463,-2.10493,-1.74421
2.18089,1.70470,0.07113,-2.02198,-2.18569,-1.92452
1.96389,1.67451,-0.14966,-2.14428,-2.09826,-1.99027
1.90082,1.85287,0.26567,-1.98292,-2.05692,-2.04776
2.31020,2.08614,0.29834,-1.79190,-1.98117,-1.68694
2.34892,1.94981,0.35320,-1.91665,-1.79624,-1.61269
2.28257,2.08780,0.26468,-1.72606,-2.09602,-1.63898
2.18078,1.97574,-0.27445,-2.11964,-1.98107,-1.45882
2.13198,2.00252,-0.16715,-2.11505,-1.77719,-1.49627
2.72741,2.21986,0.10154,-1.56529,-1.48468,-1.09020
2.97004,2.11570,0.10205,-1.64994,-1.40286,-1.25440
2.70372,2.10744,-0.38156,-1.64490,-1.43429,-1.31771
2.32938,1.52235,-0.70507,-2.00401,-1.90197,-1.47706
2.40610,1.66355,-0.43087,-1.95549,-1.68169,-1.46495
2.62461,1.84955,-0.61994,-1.72601,-1.76199,-1.04329
2.95383,2.02809,-0.54898,-1.79239,-1.43103,-0.72296
2.95699,1.56061,-0.65665,-1.96496,-1.49389,-0.71267
2.48638,1.38614,-0.91123,-2.29346,-1.71129,-0.88856
2.69595,1.30294,-0.86110,-2.05627,-1.52039,-0.44569
2.77477,1.77072,-0.76626,-2.22939,-1.03474,-0.22931
3.18641,1.81764,-1.02600,-2.24973,-1.13825,-0.16102
3.06907,1.50688,-1.04793,-2.21705,-1.01849,-0.10554
3.05908,1.42543,-1.09506,-2.07157,-0.67643,-0.11511
2.86912,0.92669,-1.37879,-2.41574,-0.68163,0.07981
2.98051,1.28686,-1.43717,-2.02051,-0.61320,0.49379
2.81649,0.94264,-1.43085,-2.04992,-0.21978,0.79076
2.66893,0.88313,-1.68335,-2.13180,-0.42612,0.74281
2.65413,0.67208,-1.59019,-2.59970,-0.51050,0.51908
2.41338,0.41608,-1.78135,-2.39076,-0.13745,0.52077
2.50631,0.42670,-1.79004,-2.45205,-0.09755,0.90994
2.69106,0.56979,-1.63483,-2.26137,0.23937,1.22556
2.80468,0.61520,-1.60251,-2.14872,0.47147,1.39987
2.31348,0.05570,-1.76308,-2.14849,0.58199,1.44394
2.58575,0.24713,-1.96459,-2.12932,0.67862,1.45452
2.38435,0.16726,-2.21004,-1.90332,0.75286,1.63946
2.60498,0.21908,-2.19015,-1.68870,1.28492,1.58763
2.46118,-0.11993,-2.16959,-1.52434,1.29542,1.78478
2.42685,-0.29128,-2.31512,-1.52562,1.15451,1.48664
1.92841,-0.69890,-2.47247,-1.38998,0.94069,1.34209
1.78681,-0.80179,-2.39109,-1.55215,1.14940,1.56712
1.81347,-0.85154,-2.39300,-1.18606,1.35559,1.67384
1.84148,-0.59343,-2.20450,-1.17222,1.51150,1.63613
1.59276,-1.13051,-2.15136,-1.03049,1.28040,1.49206
1.37288,-1.15954,-2.32636,-1.02626,1.39805,1.37463
1.11186,-1.26127,-2.21229,-1.13177,1.38009,1.48822
1.28973,-1.10646,-2.02209,-0.90305,1.51419,1.96919
1.24823,-1.27701,-2.25505,-0.77067,1.43846,2.13147
1.15644,-1.43433,-2.40088,-0.47573,1.57367,1.76490
0.85358,-1.61169,-2.36790,-0.62774,1.43273,1.70964
0.65748,-1.54141,-2.34544,-0.29533,1.49590,1.99565
0.83875,-1.71661,-1.99987,-0.33042,1.75161,1.84770
0.46044,-1.48678,-1.90315,-0.12602,1.60286,2.25655
0.27276,-1.89739,-2.10423,-0.31895,1.42868,2.20603
0.08694,-2.04903,-1.81924,-0.21391,1.42469,1.78061
0.09717,-1.90733,-1.97203,-0.06046,1.59180,2.02220
0.05271,-1.66176,-1.48406,0.11902,1.97506,2.63799
0.21979,-1.29451,-1.37510,0.28971,1.89223,2.69825
0.05103,-1.64188,-1.55773,0.27163,2.06995,2.64158
-0.24606,-1.75763,-1.53511,0.10549,2.07893,2.37818
-0.24187,-1.57879,-1.60209,-0.08250,2.06782,2.49064
-0.03852,-1.61369,-1.46931,0.36402,2.27604,2.81253
0.35838,-1.24911,-1.10620,0.85939,2.72864,3.18782
0.24961,-1.67624,-1.40227,0.78668,2.71285,2.81148
-0.37414,-1.84312,-1.45369,0.48307,2.42813,2.54371
-0.36406,-2.12169,-1.56331,0.51062,2.12102,2.70941
-0.45830,-1.88709,-1.35174,0.61357,2.50663,2.58552
-0.21371,-1.78240,-1.35309,0.78858,2.50346,2.80292
-0.32551,-1.77010,-1.19727,0.96577,2.78036,2.76155
-0.68168,-2.11757,-1.52662,0.55396,2.36867,2.71167
-0.88220,-2.04712,-1.57815,0.71979,2.40963,2.97043
-0.70961,-1.93777,-1.51856,0.71481,2.75040,2.78684
-0.55764,-1.88602,-1.13956,1.04420,2.98210,3.24773
-0.87088,-2.07883,-1.16632,0.82486,2.86674,3.17148
-0.88084,-2.06419,-1.46383,1.04806,2.66792,2.90424
-0.96369,-2.44435,-1.26585,1.02158,2.65975,2.89345
-0.94768,-2.51913,-1.35309,1.26336,3.08611,2.71129
-1.20370,-2.31215,-1.01325,1.21313,2.93693,2.89524
-1.15868,-2.41926,-1.22188,1.52156,2.90145,2.56636
-1.50007,-2.74681,-1.11215,1.44823,2.63057,2.55784
-2.00745,-2.87583,-1.26975,1.43177,2.77199,2.51747
-1.75547,-2.39642,-0.59807,1.28758,2.63401,2.44002
-1.70240,-2.42709,-0.36882,1.61861,3.06381,2.61454
-1.86098,-2.11636,-0.45588,1.84281,2.74326,2.58945
-2.11265,-2.38810,-0.41433,1.77653,2.84154,2.49382
-2.25667,-2.52303,-0.59668,1.58278,2.43262,1.92250
-2.09882,-2.38089,-0.51068,2.08054,2.67333,1.98056
-1.98011,-2.26379,-0.01873,2.21506,2.94132,2.08651
-2.25854,-2.13367,0.10903,2.37618,2.81991,2.22137
-2.34691,-2.38605,0.08612,2.56201,2.52692,1.62158
-2.53965,-2.61250,-0.18648,2.55433,2.15447,1.48300
-2.73262,-2.45540,-0.10740,2.40142,2.01575,1.17280
-2.47967,-2.19815,0.10349,2.76391,2.05503,1.50579
-2.43472,-1.93968,0.49968,2.67421,1.87222,1.43650
-2.88413,-1.85834,0.61338,2.60452,1.65694,1.26194
-2.98135,-1.97728,0.75855,2.43136,1.62061,1.12280
-2.85984,-2.00837,0.85450,2.52062,1.34996,1.02627
-2.74494,-1.79546,1.04874,2.61325,1.36190,1.06938
-2.71068,-1.60380,0.89273,2.86588,1.61319,1.01630
-2.72191,-1.49592,1.03024,2.60679,1.32504,0.78920
-2.93003,-1.36228,1.03090,2.43933,1.35400,0.70429
-2.81835,-1.40234,1.17370,2.69691,0.91328,0.45754
-2.56002,-1.21829,1.21873,2.48666,1.28149,0.69763
-2.64440,-1.17697,1.31202,2.46530,1.24300,0.73082
-2.59155,-1.25880,1.40453,2.52736,0.64022,0.33875
-3.11576,-1.35473,1.22410,2.04363,0.47667,0.14821
-2.75295,-1.22560,1.38535,2.03525,0.55648,0.33853
-2.71966,-0.69234,1.86851,2.31461,0.49201,0.31801
-2.42593,-0.47952,1.84429,2.37139,0.85776,0.54715
-2.42500,-0.49588,2.06040,2.02070,0.50740,0.52473
-2.38081,-0.33351,1.80828,1.83294,0.47296,0.15526
-2.33582,-0.26833,1.78740,1.86354,0.56370,0.21519
-2.28447,-0.16766,1.86174,2.07771,0.45936,0.11191
-2.02564,0.12215,1.73627,2.09735,0.92432,0.16276
-1.99046,0.21211,1.85781,1.97389,0.84647,0.09801
-2.20449,-0.32758,1.78246,2.02779,0.54164,-0.17073
-2.14330,-0.35858,1.25140,1.79546,0.16465,-0.67489
-2.17690,0.04670,1.68000,1.78736,0.13144,-0.70130
-1.77540,0.06621,1.68780,1.68441,0.38008,-0.46438
-1.88018,0.02501,1.66454,1.56789,0.26615,-0.54281
-2.12233,0.04575,1.88953,1.50092,0.01092,-0.96235
-2.06850,-0.12810,1.42302,1.48116,-0.27789,-1.10597
-2.07776,0.27987,1.78530,1.38184,-0.39633,-1.23499
-1.79164,0.45708,1.80044,1.25907,-0.26764,-1.24436
-1.62656,0.37641,1.83551,1.45712,-0.36801,-1.22145
-1.88419,0.35163,1.62024,1.49659,-0.57026,-1.62387
-1.84183,0.21170,1.68552,1.38367,-0.56752,-1.83846
-1.64301,0.07433,1.60194,1.32049,-0.69713,-1.94096
-1.44444,0.26327,1.76308,1.36017,-0.82083,-1.71199
-1.58181,0.60736,1.75179,1.24354,-1.02387,-1.87126
-1.94968,0.52661,1.89473,1.02186,-1.52808,-2.12478
-1.76282,0.33808,2.03730,0.89741,-1.38649,-2.39223
-1.73799,0.54238,1.89957,1.04256,-1.59839,-2.45378
-1.54192,1.04500,2.16635,0.95150,-1.49051,-2.06218
-1.42518,0.99163,2.59054,1.00478,-1.68417,-2.04064
-1.41854,1.04083,2.13239,0.87063,-1.82497,-2.54366
-1.70428,0.86069,2.32160,0.73107,-1.88734,-2.49371
-1.46814,1.34361,2.13661,0.42778,-1.95987,-2.69983
-1.08191,1.48929,2.35153,0.87822,-1.76118,-2.30815
-0.86123,1.91145,2.50710,0.91768,-1.93116,-2.62853
-0.90309,1.66434,2.40211,0.66297,-2.00181,-2.84150
-0.83628,1.55656,2.07329,0.56403,-2.28112,-2.81789
-0.88700,1.35031,2.06188,0.34090,-2.65213,-3.25298
-0.37207,1.93431,2.25500,0.49295,-2.39947,-2.82701
-0.41896,2.07093,2.10181,0.38049,-2.66297,-2.79143
-0.11641,2.11407,2.20063,0.07479,-2.72162,-2.98444
-0.08633,1.90628,2.06464,-0.41451,-2.89890,-2.86715
-0.13787,2.19381,1.80465,-0.39529,-3.15033,-3.04190
-0.00062,2.16213,1.93101,-0.42862,-2.73000,-2.65006
0.44813,2.27628,2.05920,-0.55867,-2.95130,-2.66494
0.31678,2.48076,1.77419,-0.78137,-2.58679,-2.62515
0.65635,2.22167,1.31666,-0.88867,-3.04468,-2.74577
0.57194,2.02262,1.42336,-1.15692,-2.79068,-2.87562
0.64845,2.37449,1.28212,-0.91989,-2.85555,-2.54075
0.85708,2.30640,1.36936,-1.06001,-2.66188,-2.50670
1.01548,2.11104,1.24302,-1.14570,-2.89719,-2.58646
0.67682,1.90013,1.16689,-1.53995,-2.95815,-2.81815
0.96368,2.10608,0.88134,-1.96497,-2.84987,-2.69675
0.89482,2.07733,0.86802,-1.97505,-2.59241,-2.31194
1.39856,2.36111,1.30098,-1.74414,-2.74065,-2.19872
1.52657,2.38640,0.79717,-1.85392,-2.70368,-2.18771
1.33761,2.41620,0.63476,-2.01270,-2.79443,-2.38624
1.50347,2.22106,0.49170,-2.25190,-2.75694,-2.63823
1.73499,2.17122,0.60205,-2.10200,-2.27366,-2.36537
2.05362,2.37327,0.35666,-1.72178,-2.22721,-2.36389
1.90974,2.45273,0.35017,-1.97956,-2.11539,-2.35538
1.65857,2.09392,-0.01375,-1.77576,-2.30867,-2.58033
1.58560,1.52985,-0.16592,-2.21504,-2.35808,-2.64166
1.68195,1.58291,-0.06315,-2.02828,-2.55327,-2.79741
1.77369,1.66067,0.07637,-1.84107,-2.32660,-2.49835
1.88633,1.98817,-0.12547,-1.80784,-2.42205,-2.28912
1.84529,1.87709,-0.26839,-2.01123,-2.62811,-2.47234
1.70412,1.62319,-0.20803,-2.43499,-2.68302,-2.54461
1.71858,1.54936,-0.34561,-2.19194,-2.43406,-2.68671
1.80556,1.73294,-0.43470,-2.06757,-2.51198,-2.16969
1.98811,1.51789,-0.20410,-2.07747,-2.41939,-2.37590
2.09440,1.47981,-0.72860,-2.17000,-2.56509,-2.16735
1.93383,1.46686,-0.52379,-2.45078,-2.62130,-2.37797
1.83889,1.40595,-0.87519,-2.24016,-2.31515,-2.34078
1.87260,1.57430,-0.50090,-2.06398,-2.35448,-2.14954
2.00155,1.43720,-0.44680,-2.27804,-2.38810,-1.95427
1.92396,1.34179,-0.92468,-2.43756,-2.51106,-2.00080
1.77680,1.09116,-0.86905,-2.58781,-2.69068,-2.18988
1.59113,1.26782,-0.74437,-2.60784,-2.64460,-1.68706
2.19759,1.20823,-0.70157,-2.50509,-2.26848,-1.48152
2.32147,1.56725,-0.54547,-2.52165,-1.87422,-1.15489
2.18563,1.39007,-0.79592,-2.33367,-1.92038,-1.14271
2.01226,1.28221,-0.85220,-2.55215,-2.24369,-1.29783
2.02342,1.27705,-0.86088,-2.72484,-1.79183,-1.15624
2.62057,1.28110,-1.00652,-2.35822,-1.37727,-0.82522
2.74611,1.30022,-1.02136,-2.15637,-1.44908,-0.49053
2.82664,1.44694,-1.11326,-2.27685,-1.28305,-0.54245
2.28975,0.92145,-1.51898,-2.41199,-1.19830,-0.72834
2.56563,0.87778,-1.77085,-2.78483,-1.28909,-0.61968
2.57528,0.97788,-1.47450,-2.65844,-1.27003,-0.39150
2.73212,0.86025,-1.37129,-2.33237,-1.00787,0.11287
2.75564,1.02170,-1.78726,-2.52827,-0.84125,0.13029
2.55037,0.76533,-2.01647,-2.71132,-0.83523,0.19236
2.21994,0.48371,-2.16982,-2.67777,-0.90053,0.27535
2.52990,0.39051,-2.17682,-2.49453,-0.46414,0.39850
2.61235,0.49303,-1.94755,-2.39709,-0.09804,0.46330
2.65968,0.35254,-2.14775,-2.49813,-0.15884,0.68058
2.52180,-0.05291,-2.27191,-2.59152,0.07620,0.70002
2.28175,-0.28842,-2.33880,-2.37686,0.05143,0.71706
2.48159,-0.17223,-2.53641,-2.43245,0.02541,1.02964
2.36521,-0.46857,-2.44855,-1.97040,0.38052,1.21210
2.29824,-0.60282,-2.50252,-2.01408,0.30958,1.06682
1.69690,-0.86638,-2.70538,-2.26687,0.41147,1.08606
1.72973,-1.04755,-2.60566,-2.40864,0.45968,0.88783
1.64800,-1.03261,-2.42513,-2.16475,0.79940,1.28150
1.93047,-0.59180,-2.17609,-1.76185,0.95911,1.54854
1.64586,-0.94754,-2.16194,-1.76721,0.87979,1.74090
1.37201,-1.18655,-2.32279,-1.77189,0.90082,1.73560
1.28004,-1.10793,-2.41844,-1.90922,0.91082,1.45322
1.17898,-1.31200,-2.65283,-1.61207,1.05903,1.83569
1.32046,-0.93035,-2.34006,-1.20933,1.62664,1.78280
1.45021,-1.10997,-2.32425,-0.87415,1.54492,1.73464
1.10359,-1.25363,-2.55473,-0.72700,1.35746,1.69782
0.71217,-1.64904,-2.44893,-0.92689,1.39321,1.68283
0.61715,-1.79028,-2.54611,-0.65522,1.44667,1.64923
0.74622,-1.63467,-2.29570,-0.43663,1.52119,1.71535
0.90479,-1.44394,-2.02926,-0.24617,1.58683,1.78365
0.77691,-1.51480,-2.02194,-0.30804,1.44786,2.07689
0.42406,-1.81099,-2.25596,-0.19764,1.50809,1.77261
0.30542,-1.67384,-1.86381,-0.42325,1.45778,1.95927
0.29944,-1.73225,-1.97196,-0.20699,1.56177,1.99297
0.48033,-1.65869,-1.59187,0.08916,1.70256,2.40809
0.40927,-1.81184,-1.79821,0.25264,1.73822,2.34139
0.17197,-1.93386,-1.76204,0.05704,2.00657,2.30151
0.16673,-1.89811,-2.03394,0.25049,1.77988,2.48793
0.27976,-1.86961,-1.63898,0.53256,1.90697,2.49730
-0.00782,-1.93354,-1.43849,0.46357,1.98681,2.76162
-0.20111,-2.01093,-1.37776,0.48604,2.05421,2.49940
-0.42173,-2.02220,-1.58078,0.29659,2.01622,2.61875
-0.30173,-2.11321,-1.50700,0.35323,2.22492,2.55807
-0.10939,-1.91217,-1.33913,0.34968,2.21842,2.89588
-0.12868,-1.63978,-0.82496,0.63474,2.40807,3.30734
-0.27565,-1.45651,-1.15753,0.59375,2.72885,3.08363
-0.33265,-1.82837,-1.07502,0.41174,2.67185,3.03286
-0.68271,-1.99411,-1.46317,0.73660,2.81655,3.27944
-0.14974,-1.53944,-1.06541,0.83708,2.85733,3.15655
-0.11769,-1.45131,-0.87310,1.28305,3.35098,3.61845
-0.42490,-1.74820,-1.09128,1.25170,3.28895,3.47674
-0.59310,-2.04500,-1.43797,1.30036,3.13504,3.10216
-0.74954,-2.21063,-1.53498,1.24676,2.96984,2.83354
-0.93814,-2.21370,-1.28553,1.26043,3.04619,2.99874
-0.79181,-1.92800,-0.81085,1.39249,3.18349,3.17581
-0.97029,-1.90241,-0.95090,1.73885,3.19641,3.28969
-1.04523,-2.17717,-1.01160,1.35506,3.27649,3.06265
-1.41276,-2.32721,-0.94018,1.54229,3.14612,2.63756
-1.21695,-2.31677,-0.71273,1.52173,3.20169,2.79005
-1.10656,-2.18797,-0.55712,1.67526,3.22358,3.10656
-1.39417,-1.95304,-0.58041,2.18399,3.28359,2.75892
-1.43310,-2.30553,-0.41594,2.04982,3.03475,2.45982
-1.77456,-2.51270,-0.45143,2.13803,3.02084,2.43716
-1.52488,-2.30862,-0.25713,2.22093,3.18591,2.40776
-1.75912,-2.24356,-0.26919,2.36626,2.92738,2.29463
-1.95353,-2.25157,-0.09006,2.50729,2.93029,2.32619
-2.03216,-2.23113,-0.00061,2.39878,2.58753,1.92231
-2.39475,-2.20586,-0.05184,2.39100,2.63861,1.80032
-2.36535,-2.10472,0.42435,2.58208,2.58786,2.06151
-2.30679,-2.00741,0.83855,2.70305,2.45664,2.21238
-2.32135,-1.77558,0.78059,3.01578,2.74950,2.20010
-2.51369,-1.84696,1.09204,2.84758,2.45783,1.88496
-2.42892,-1.60531,0.96175,2.75070,2.28863,1.73710
-2.57114,-1.43226,0.93836,2.98145,2.21256,1.45120
-2.05271,-1.29107,1.41068,3.04973,2.48131,1.62931
-2.01877,-1.08656,1.31188,3.49437,2.46982,1.68751
-2.15134,-1.30521,1.34430,3.38019,2.03864,1.48234
-2.28646,-1.16807,1.29267,3.08290,1.78349,1.02452
-2.54653,-1.29814,1.22401,2.95941,1.56948,0.87806
-2.50003,-1.01412,1.66231,2.99045,1.63790,1.13314
-2.14841,-0.64998,1.93806,3.39544,1.88599,0.95320
-2.34324,-0.50370,1.90867,3.01591,1.71626,1.09272
-2.22481,-0.80685,1.85752,2.67616,1.26451,0.99434
-2.34290,-0.57619,1.91010,2.86079,1.34563,0.60396
-2.05661,-0.34481,1.96915,2.71232,1.12038,0.70623
-2.02832,0.01153,2.15373,2.73460,1.46803,0.96499
-1.75692,0.00763,2.19677,2.85753,1.31977,0.92317
-2.08757,-0.09565,1.86471,2.72609,1.01559,0.82510
-1.76695,-0.38221,1.73116,2.34531,0.81579,0.39242
-1.88414,0.14248,2.06529,2.44059,1.12672,0.51402
-1.83082,0.25560,2.20259,2.49978,1.20736,0.61708
-1.90776,0.17566,2.07123,2.56921,0.82952,0.59244
-2.10248,-0.14864,1.94962,2.07840,0.56702,0.15027
-2.12195,-0.00355,2.17058,2.20877,0.42965,0.12165
-1.73253,0.41857,2.11930,1.95411,0.59005,0.25408
-1.41327,0.43517,2.51781,2.26636,0.59717,0.29420
-1.60872,0.68996,2.30883,2.00083,0.79017,0.07080
-1.71194,0.43842,2.20741,1.73064,0.38217,-0.15293
-1.52517,0.35466,2.17283,1.88358,0.26632,-0.20593
-1.50051,0.55697,2.09825,1.69954,0.64177,-0.11711
-1.33499,1.07773,2.54474,2.23451,0.68529,-0.17886
-1.11895,0.97935,2.52161,2.01276,0.46962,-0.36443
-1.32680,0.62753,2.02498,1.83756,0.03924,-0.58821
-1.25822,0.71438,2.12758,1.95240,0.03586,-1.01589
-1.52949,0.43253,2.22063,1.95234,-0.12630,-1.22387
-1.41083,0.80422,2.41172,1.84882,-0.13129,-1.40347
-1.12862,1.04693,2.55965,1.76892,-0.39698,-1.32877
-1.33152,0.97591,2.14605,1.68927,-0.47469,-1.68738
-1.32895,0.63491,2.17443,1.59655,-1.02099,-1.78313
-1.38372,1.07261,2.21380,1.59278,-1.02371,-1.69291
-1.11968,1.00321,2.52530,1.48510,-0.74306,-1.73940
-0.94349,1.25203,2.37263,1.36169,-0.86665,-1.77886
-1.01219,1.25374,2.38458,1.42239,-1.21051,-2.03605
-0.92385,1.22674,2.19361,1.08757,-1.34298,-2.26323
-1.04233,1.11258,2.44003,1.27399,-1.64282,-2.13397
-0.75652,1.38093,2.64272,1.33738,-1.69178,-2.17147
-0.97396,1.60063,2.43715,1.38127,-1.70143,-2.51072
-0.95951,1.46680,2.47074,1.02091,-1.88515,-2.40478
-1.09476,1.50829,2.17927,0.62592,-2.15082,-2.85050
-0.88948,1.74451,2.31303,0.50997,-2.24548,-2.46510
-0.74277,1.79323,2.91362,0.76942,-2.04980,-2.31162
-0.31460,2.36843,2.67987,0.51044,-2.08290,-2.13448
-0.38963,2.08550,2.84003,0.38295,-2.29944,-2.48754
-0.24206,1.96463,2.32071,0.01307,-2.38778,-2.76422
-0.30179,2.23164,2.41231,-0.26531,-2.56950,-2.52995
0.15843,2.49659,2.41175,0.10071,-2.21985,-2.27702
0.71795,2.91334,2.24602,-0.02243,-2.30619,-2.39840
0.48470,2.72021,2.07761,0.02266,-2.44490,-2.38053
0.54543,2.55427,1.68455,-0.46360,-2.58451,-2.62241
0.30056,2.25090,1.72712,-0.40040,-2.80429,-2.76944
0.68577,2.33117,1.90338,-0.50250,-2.62607,-2.75947
1.10694,2.80380,1.62013,-0.74338,-2.61270,-2.55416
0.98712,2.58030,1.67725,-0.80747,-2.55451,-2.45725
1.17886,2.35623,1.41777,-1.07830,-2.59045,-2.76661
0.91156,2.22774,1.41228,-1.29270,-2.79401,-2.69102
1.18764,2.55651,1.39056,-1.54703,-2.71055,-2.41849
1.42058,2.47566,1.01294,-1.26179,-2.45260,-2.34369
1.46183,2.58339,0.82854,-1.55690,-2.40625,-2.50753
1.53155,2.33912,0.73552,-1.72232,-2.63378,-2.53425
1.32742,2.23688,0.41886,-1.70933,-2.69809,-2.39127
1.58395,2.02874,0.63880,-1.77014,-2.63676,-2.29904
1.64857,2.16515,0.53750,-1.67959,-2.31911,-2.22386
1.63489,1.81325,0.32479,-1.77942,-2.62626,-2.39287
1.28490,1.58525,0.27517,-2.11355,-2.72214,-2.69890
1.20403,1.84091,0.09944,-2.39128,-2.95167,-2.53125
1.32487,1.81982,0.34632,-2.32297,-2.51024,-2.57676
1.78526,1.98870,0.21840,-2.34249,-2.29890,-2.20574
1.62414,1.80653,0.40500,-2.11321,-2.36173,-2.24023
1.43401,1.84580,-0.13022,-2.27786,-2.56664,-2.56611
1.57842,1.47772,-0.19876,-2.64363,-2.52121,-2.58125
1.56994,1.71675,-0.47852,-2.40620,-2.32794,-2.48442
1.80820,1.62382,-0.04645,-2.01275,-2.17962,-2.20542
1.96468,1.75564,-0.26507,-1.97701,-2.10787,-2.08928
1.81165,1.65753,-0.62431,-2.04888,-2.48753,-2.33678
1.66199,1.36769,-0.97109,-2.37237,-2.53031,-2.43369
1.51601,1.22905,-1.02971,-2.33611,-2.47127,-2.67230
1.67162,1.16578,-0.85687,-2.36086,-2.69220,-2.60833
1.94891,1.37537,-0.68029,-2.27334,-2.63038,-2.10227
1.82437,1.13149,-0.62679,-2.37163,-2.37778,-2.24989
1.86303,1.28522,-0.75254,-2.39394,-2.58241,-2.21440
1.87209,1.08783,-1.15282,-2.56690,-2.82806,-2.13698
2.05580,1.21415,-1.07247,-2.45319,-2.61281,-1.84673
1.92526,1.33986,-1.06350,-2.44426,-2.57265,-1.81673
2.12300,1.03224,-1.03007,-2.73771,-2.39026,-1.60652
1.99388,0.78621,-1.32824,-2.56719,-2.55743,-1.75939
1.90643,1.00993,-1.51585,-2.68072,-2.18707,-1.74995
2.16158,0.79768,-1.31407,-2.43042,-2.23780,-1.34459
2.03291,0.83468,-1.43591,-2.72992,-2.20693,-1.42989
2.11891,0.81481,-1.50058,-2.89951,-2.31153,-1.12814
1.64603,0.61029,-1.79484,-2.96097,-2.31867,-1.16094
1.70802,0.57902,-1.49648,-3.19691,-2.03925,-0.87516
1.87356,0.84101,-1.52877,-3.14309,-1.65374,-0.69977
2.14006,0.70158,-1.66897,-2.83579,-1.49156,-0.45601
2.25064,0.63737,-1.49512,-3.09698,-1.24742,-0.30464
1.99326,0.46395,-1.95262,-3.23780,-1.41548,-0.31174
1.79961,0.20192,-2.22334,-3.26213,-1.22374,-0.11596
2.23830,0.23603,-2.10237,-3.17520,-0.87420,-0.10276
2.42905,0.39426,-2.25497,-2.57000,-0.46197,0.34125
2.28157,0.45082,-2.24899,-2.78778,-0.66980,0.39791
2.20003,0.09464,-2.72077,-2.81189,-0.39692,0.05266
1.89416,-0.39493,-2.83271,-2.85416,-0.48138,0.23676
2.00148,-0.26045,-2.91746,-2.73017,-0.61117,0.18166
2.14831,-0.33856,-2.68129,-2.59616,-0.19665,0.41339
2.04524,-0.49653,-2.77138,-2.65247,-0.20842,0.38268
1.73542,-0.71518,-2.78980,-2.49536,-0.26250,0.44867
1.41529,-0.99897,-2.93547,-2.89770,-0.13293,0.63557
1.64446,-0.89717,-2.85839,-2.80122,-0.07527,0.57808
1.52232,-1.05917,-2.94923,-2.34256,0.41661,1.03287
1.46223,-0.99334,-3.03343,-2.08133,0.45144,0.78642
1.54789,-1.24494,-3.08492,-2.24525,0.36355,0.74381
1.10960,-1.55516,-3.12090,-2.35423,0.35585,0.83651
1.10029,-1.82087,-3.09666,-2.04337,0.74260,0.92928
1.21532,-1.51071,-2.85564,-1.54123,0.93587,1.27089
0.79324,-1.69931,-3.09642,-1.56644,0.61313,1.12661
0.50268,-1.91462,-3.15163,-1.63832,0.47082,0.99762
0.44760,-2.16530,-3.14619,-1.56961,0.59640,0.86031
0.25218,-2.18754,-2.97487,-1.38074,0.81998,1.18616
0.27953,-1.95717,-2.54547,-1.28146,0.99976,1.49631
0.26450,-1.98755,-2.20880,-1.03960,1.12160,1.53032
-0.01606,-1.99031,-2.35280,-1.31307,1.03598,1.65201
-0.04790,-2.31199,-2.57374,-1.35714,1.02008,1.27947
0.03532,-2.25261,-2.53026,-0.81184,1.05918,1.63311
0.33610,-1.71599,-2.12978,-0.41922,1.59739,1.95185
0.30202,-1.83641,-2.29090,-0.11459,1.71314,1.93304
-0.04517,-1.88539,-2.38528,-0.19622,1.41498,1.89233
-0.39328,-2.09121,-2.39107,-0.40700,1.22433,1.81057
-0.53865,-2.17300,-2.35973,-0.33086,1.24316,1.46644
-0.21266,-2.10119,-2.10795,-0.01683,1.59405,1.94253
-0.33514,-1.88362,-1.93480,-0.03078,1.83331,2.10578
-0.49831,-1.98110,-1.96803,-0.13873,1.73363,2.05865
-0.67196,-2.34356,-2.13162,-0.21278,1.44542,1.96953
-0.59095,-2.32835,-2.19637,-0.02033,1.57599,2.02118
-0.62166,-2.09804,-1.71134,-0.09308,1.78961,2.47956
-0.52262,-1.91344,-1.83155,0.30972,1.91351,2.66759
-0.44446,-2.06699,-1.78701,0.19930,2.00460,2.49842
-0.50630,-2.19401,-1.92979,0.07975,1.83975,2.63101
-0.81760,-2.23008,-2.02704,0.32632,1.96055,2.57946
-0.58586,-2.05465,-1.83922,0.47904,2.43242,2.53619
-0.74333,-2.25334,-1.61604,0.61820,2.48453,2.87637
-0.82030,-2.32604,-1.63677,0.49367,2.30334,2.61664
-1.18929,-2.66468,-1.51931,0.48292,2.25508,2.50404
-1.36455,-2.58501,-1.58275,0.49316,2.45308,2.45099
-1.00858,-2.26446,-1.31601,0.55501,2.41795,3.06415
-0.85213,-2.19287,-0.96006,0.70172,2.82441,3.26036
-1.01368,-2.02274,-0.89078,1.04766,2.64850,2.88312
-1.44908,-2.35033,-1.13390,0.93615,2.58467,2.78810
-1.27896,-2.57550,-1.35986,0.80960,2.78515,2.84993
-1.29598,-2.34285,-1.26073,1.30030,3.01934,2.78774
-1.22666,-2.13842,-0.88296,1.56777,3.27868,3.03499
-1.14636,-2.04046,-0.71361,1.88421,3.42834,3.05533
-1.33673,-2.51283,-1.00851,1.77863,3.21640,2.41578
-1.79361,-2.44854,-1.16910,1.73137,3.03256,2.20982
-1.78496,-2.46229,-0.76723,2.01876,3.01687,2.03136
-1.85493,-2.22808,-0.61394,2.31132,2.92218,2.10378
-1.99270,-2.38024,-0.39128,2.30629,3.01199,2.44557
-2.16529,-2.37754,-0.24738,2.39494,2.59414,2.07273
-2.42273,-2.33916,-0.36405,1.95633,2.58233,1.82954
-2.25727,-2.13490,-0.17980,2.39599,2.40344,1.96498
-2.07784,-2.19127,0.27007,2.46903,2.38976,1.99337
-2.09833,-2.11256,0.39725,2.58934,2.75731,1.93989
-2.37195,-2.04927,0.35634,2.79363,2.23814,1.63902
-2.34846,-1.99040,0.41667,2.78355,2.38975,1.70883
-2.46566,-1.89068,0.29988,2.73493,2.27034,1.69057
-2.27526,-1.93231,0.78395,3.17370,2.17961,1.65363
-2.40321,-1.82053,1.07457,3.01800,1.96518,1.56670
-2.45494,-1.62321,1.03378,2.87552,1.78401,1.12488
-2.84157,-1.73001,1.08982,2.81940,1.74299,1.25726
-2.65792,-1.66231,1.29650,2.91128,1.48764,1.18368
-2.51038,-1.03200,1.84337,2.77327,1.64096,1.32260
-2.35509,-0.71033,1.75505,2.94843,1.83197,1.58890
-2.42845,-0.68936,2.09663,2.76797,1.63194,1.39910
-2.47863,-0.64524,1.67600,2.71714,1.58951,0.97468
-2.29840,-0.60407,1.84267,2.70004,1.36460,0.94282
-2.07890,-0.22994,2.26373,2.88422,1.64124,1.31501
-1.78144,0.06800,2.08080,3.12859,1.82243,1.44648
-1.92763,-0.19053,2.04877,2.99410,1.50666,0.97679
-1.81581,-0.30930,2.04920,2.72917,1.33799,0.94406
-1.85290,-0.08263,2.09032,2.94041,1.34091,0.78443
-1.79943,-0.17473,2.19592,2.74999,1.34177,0.61943
-1.70130,0.01562,2.40966,2.86578,1.10371,0.85784
-1.80946,0.30352,2.21271,2.86249,1.07347,0.81084
-1.83429,0.33256,2.20717,2.72686,0.99367,0.37324
-1.86484,0.12471,2.13381,2.33679,0.85013,0.44010
-1.63936,0.27859,2.13704,2.58839,1.06794,0.57166
-1.37399,0.60866,2.46959,2.56479,1.14946,0.69929
-1.20241,0.57225,2.58411,2.49414,0.90129,0.61925
-1.51184,0.39902,2.12672,2.21232,0.76493,0.18889
-1.30086,0.59770,2.30815,2.40502,0.52574,-0.09978
-1.28681,0.71277,2.12548,2.30147,0.87217,-0.09674
-0.99631,0.89828,2.60219,2.18600,0.57204,-0.15332
-1.27870,0.86936,2.40720,2.08721,0.62582,-0.30391
-1.31051,0.76399,2.18518,1.97596,0.32897,-0.33750
-1.62705,0.77882,2.46162,1.93549,0.10707,-0.69509
-1.12538,0.83476,2.77763,1.95913,0.37966,-0.53744
-1.25285,1.05763,2.83936,2.16112,0.43842,-0.59766
-1.17796,1.27662,3.08411,2.00402,0.34312,-0.61615
-1.00452,1.27886,2.80133,1.88213,-0.02588,-0.81937
-1.02087,1.02802,2.61639,1.86973,-0.35005,-1.03464
-0.98856,1.24205,2.53272,2.03041,-0.09474,-1.04576
-0.67096,1.52991,2.73250,2.28737,0.02890,-0.98976
-0.51516,1.57401,3.02345,2.14173,0.04869,-1.10780
-0.68969,1.55658,2.73030,2.03620,-0.43970,-1.45234
-0.91136,1.39709,2.59863,1.93052,-0.63298,-1.58304
-0.76511,1.49759,2.60768,1.78423,-0.97348,-1.95498
-0.56051,1.75243,2.84882,1.90256,-0.93909,-1.84224
-0.37385,1.97373,3.02013,1.89588,-1.01879,-1.84585
-0.58057,2.02760,2.83171,1.74766,-1.37844,-1.89104
-0.68980,2.06863,2.90879,1.37900,-1.62884,-2.32603
-0.25740,1.89607,2.81525,1.33373,-1.47212,-2.29922
0.00227,2.11051,2.87654,1.26407,-1.54693,-1.93586
0.05946,2.62448,2.95536,1.37124,-1.71871,-1.96068
0.12695,2.48659,2.94010,1.16144,-1.65514,-2.00712
-0.03566,2.25083,2.57831,0.74929,-2.05523,-2.38126
0.13261,2.29556,2.86025,0.91276,-1.92802,-2.27608
0.23627,2.52972,2.79062,0.93691,-2.08378,-2.19852
0.49693,2.63097,2.69339,0.58971,-2.09374,-2.26460
0.63890,2.79670,2.83081,0.21025,-2.33774,-2.38167
0.52550,2.64714,2.57532,0.14723,-2.30117,-2.27856
0.73186,2.46596,2.31949,-0.26698,-2.53552,-2.39825
0.88575,3.01006,2.75483,0.02456,-2.05069,-1.82144
0.95483,3.06605,2.69667,-0.11057,-1.96112,-1.64326
1.09689,3.16973,2.67067,-0.54603,-2.16874,-1.78729
1.29233,3.10687,2.27956,-0.66690,-2.26385,-2.03798
1.27640,2.91275,1.86743,-0.63986,-2.12611,-1.97457
1.76571,3.16459,1.87621,-0.58849,-2.03144,-2.01202
1.80574,3.39391,1.92215,-0.44636,-1.83774,-1.52199
1.94309,3.12298,1.69672,-0.78420,-1.94611,-1.92988
1.66326,2.76651,1.33393,-0.97035,-1.99637,-1.94645
1.93507,2.84076,1.28629,-1.02388,-2.05602,-2.09215
1.76627,2.78456,1.01375,-1.05649,-2.19811,-2.00949
1.99781,3.02042,1.31382,-1.07610,-2.04022,-2.13528
2.13273,2.85132,1.28752,-1.35692,-2.04913,-1.93722
1.91771,2.71116,0.85878,-1.65801,-2.09255,-2.19677
2.09719,2.38799,0.86579,-1.67055,-2.41846,-2.11928
1.95655,2.43616,0.74012,-1.87685,-2.24524,-2.05512
2.43204,2.35433,0.55044,-1.64297,-1.98516,-1.85494
2.21834,2.56000,0.44177,-1.51352,-2.07009,-1.82849
2.25827,2.34487,0.45511,-1.92343,-2.19522,-2.12244
2.25231,1.84917,-0.03406,-1.88873,-2.14269,-2.07934
1.96807,2.03523,-0.07720,-1.69616,-2.20556,-1.99732
2.09334,1.80473,0.23051,-1.64818,-2.06793,-2.14605
2.07023,1.69780,0.11653,-1.82616,-2.30409,-2.00098
1.91534,1.57906,-0.31459,-1.86778,-2.29157,-2.29048
1.65842,1.54352,-0.10616,-2.32630,-2.50579,-2.22332
1.96052,1.60311,-0.29356,-2.05161,-2.43508,-1.93538
1.86612,1.70791,-0.01405,-2.03844,-2.16188,-1.80179
1.96916,1.98158,-0.00351,-1.86184,-2.12990,-1.53484
2.01673,1.79398,-0.05712,-2.07585,-2.07379,-1.64473
1.73774,1.65780,-0.46729,-2.18738,-2.32370,-2.07635
1.99100,1.44343,-0.34434,-2.31035,-2.39060,-1.72778
2.18258,1.66187,-0.46962,-2.14962,-2.08218,-1.70087
2.30808,1.77144,-0.32452,-1.75881,-1.59404,-1.52788
2.31505,1.80437,-0.59903,-2.17677,-1.88057,-1.67839
1.95260,1.28055,-0.81188,-2.37585,-2.13883,-1.57894
2.10575,1.20682,-1.04397,-2.32498,-2.20756,-1.74720
2.30228,1.44985,-1.09701,-2.28044,-1.99380,-1.35246
2.39259,1.48331,-0.67729,-2.30424,-1.92642,-1.20189
2.39922,1.30573,-1.00866,-2.41409,-2.04013,-1.35604
2.14483,0.93759,-1.06677,-2.55600,-2.08082,-1.36509
1.99820,1.03646,-1.49630,-2.66020,-2.09304,-0.98707
2.14100,1.23242,-1.20909,-2.57675,-1.68662,-0.78572
2.34053,0.96846,-1.47847,-2.70549,-1.59731,-0.62337
2.28313,0.90037,-1.47502,-2.86471,-1.48673,-0.39436
2.53110,0.51886,-1.98024,-2.93535,-1.51881,-0.53609
2.23416,0.52548,-1.94625,-2.74947,-1.18161,-0.58642
2.55512,0.52238,-2.14074,-2.66318,-1.19496,-0.02707
2.57649,0.38330,-1.90953,-2.84794,-0.93714,0.15406
2.16053,0.17885,-2.18352,-2.82786,-0.91806,0.05498
1.83836,-0.06797,-2.25452,-3.18831,-1.02339,0.08190
1.84386,-0.28018,-2.60436,-2.94052,-0.81395,0.11751
2.04041,-0.13138,-2.44031,-2.79449,-0.53217,0.38313
1.93428,0.03687,-2.34387,-2.74655,-0.42194,0.78812
2.08846,-0.30184,-2.32037,-2.66740,-0.24804,0.87953
1.80632,-0.30661,-2.78053,-3.02108,-0.14575,0.46106
1.53762,-0.69566,-2.80202,-2.86140,-0.34811,0.53314
1.70449,-0.65416,-2.77303,-2.60786,0.30675,0.65179
1.97302,-0.69765,-2.59165,-2.37498,0.31387,1.13181
1.97157,-0.88937,-2.81886,-2.05345,0.48647,1.09600
1.56664,-1.10046,-3.07327,-2.23275,0.49842,0.88157
1.08835,-1.32003,-3.27467,-2.37325,0.17635,0.79668
1.10580,-1.61448,-3.33547,-2.22821,0.34165,0.62768
1.35636,-1.33170,-2.89619,-1.71230,0.40630,0.70151
1.11016,-1.66880,-2.82390,-1.73565,0.60404,0.78464
0.77057,-1.80290,-3.07396,-1.80330,0.65739,1.01885
0.70247,-1.79374,-3.32435,-1.98803,0.47250,0.88529
0.40621,-1.94058,-3.26526,-1.75840,0.37979,0.91426
0.37668,-1.85490,-3.00593,-1.72227,0.85958,1.07918
0.54818,-2.14825,-2.89749,-1.18430,0.85364,1.37545
0.39351,-2.06722,-2.90373,-1.24854,0.93090,1.25218
0.30003,-2.25248,-3.09593,-1.44302,0.93021,1.11988
0.11151,-2.33265,-2.98195,-1.17711,0.76885,1.02334
-0.06442,-2.25270,-2.96889,-0.93236,1.11675,1.17992
-0.08323,-2.23621,-2.85834,-0.88697,1.03615,1.48407
-0.33543,-2.69160,-2.68444,-1.08517,0.87645,1.06779
-0.63945,-2.83798,-2.67073,-1.12796,0.84810,1.14146
-0.78628,-2.58172,-2.43737,-1.11674,0.74457,1.38403
-0.43405,-2.54194,-2.35766,-0.74799,1.11464,1.78414
-0.41286,-2.28601,-1.92545,-0.61948,1.42418,1.87136
-0.72194,-2.45765,-2.01630,-0.62973,1.12579,2.05462
-0.82784,-2.40691,-2.25187,-0.67876,1.22719,1.85894
-0.86395,-2.32268,-2.46778,-0.67001,1.35850,2.05951
-0.65089,-2.38738,-2.00431,-0.33229,1.41840,2.19358
-0.53502,-2.15074,-2.01607,-0.05870,1.80232,2.25326
-0.44521,-2.12250,-1.99997,0.03754,1.81227,2.15946
-0.77596,-2.39144,-2.14851,0.04175,1.84031,1.80938
-0.98586,-2.55913,-2.21639,0.04190,1.43667,1.80942
-0.90938,-2.38592,-2.29830,0.01928,1.86459,1.89575
-0.75524,-2.32228,-1.89133,0.25199,1.96852,2.26962
-0.89272,-2.62703,-1.94391,0.32942,1.85430,2.34577
-1.37279,-2.61939,-1.83914,0.03074,2.03476,2.16705
-1.51397,-2.79576,-2.04367,0.13741,1.71037,2.15430
-1.43953,-2.49814,-1.90938,0.09354,1.89867,2.50466
-1.17284,-2.34155,-1.83543,0.50801,2.20558,2.63088
-1.14371,-2.45372,-1.64326,0.24586,2.18568,2.38837
-1.59106,-2.81227,-1.84976,0.22427,2.20627,2.40473
-1.58735,-2.80464,-2.16276,0.38804,2.28958,2.38666
-1.61273,-2.73809,-1.92596,0.73658,2.20542,2.27669
-1.71215,-2.93254,-1.74557,0.76888,2.38074,2.22711
-1.87554,-3.03571,-1.73792,0.70594,2.58624,2.35156
-2.10887,-3.02804,-1.46580,0.62215,2.13206,1.98690
-2.13247,-3.05353,-1.50012,0.74873,2.03627,2.12908
-2.25065,-2.82081,-1.35169,1.00475,2.42197,1.89876
-2.20686,-2.58917,-0.98851,1.34130,2.32889,2.22200
-2.22130,-2.73676,-0.93636,1.50225,2.54262,2.12872
-2.47169,-2.97265,-0.82440,1.14095,2.38044,1.80721
-2.60916,-2.78499,-0.76810,1.50189,2.04227,1.62268
-2.51361,-2.72983,-0.79378,1.46329,2.52192,1.89500
-2.28899,-2.56115,-0.30457,1.94074,2.67853,1.83524
-2.41187,-2.31498,-0.10026,2.13890,2.55465,1.92813
-2.63579,-2.54983,-0.35256,2.24843,2.33845,1.55821
-2.88483,-2.57580,-0.56788,2.15482,2.13685,1.04728
-3.04007,-2.77602,-0.44118,2.05446,2.05562,1.19951
-2.86277,-2.26355,-0.04422,2.53390,1.74272,1.11118
-2.90315,-2.32252,0.20244,2.46256,1.74617,0.99605
-2.89948,-2.13870,0.46799,2.59411,1.78151,1.12149
-2.87927,-2.03157,0.54788,2.46431,1.49717,0.84299
-3.13898,-1.96487,0.42063,2.40939,1.16137,0.76031
-2.82247,-1.85653,1.00414,2.58511,1.35021,0.67415
-2.74454,-1.73478,1.06463,2.54066,1.59085,0.89684
-2.89969,-1.38070,1.03846,2.50801,1.11927,0.87643
-3.02453,-1.42552,0.99895,2.43865,0.98460,0.76616
-2.80980,-1.29831,0.97320,2.59188,0.90372,0.54346
-2.72494,-1.38650,1.44722,2.71185,1.10340,0.51625
-2.71121,-1.06435,1.60405,2.53676,1.09389,0.76113
-2.76274,-1.00860,1.27613,2.42036,0.95462,0.67455
-2.95683,-0.96205,1.45053,2.10380,0.77058,0.27587
-2.74791,-0.75965,1.51220,2.22301,0.80514,0.24809
-2.49330,-0.38532,1.85620,2.38295,0.64101,0.54767
-2.43267,-0.28214,2.24579,2.17700,0.86748,0.76099
-2.30448,-0.29964,1.93236,2.36839,0.93081,0.62385
-2.38009,-0.45954,1.95551,1.85341,0.76668,0.32224
-2.19828,-0.22296,1.74058,2.12454,0.73252,0.29183
-2.00535,-0.06468,2.18860,2.22843,0.83395,0.31037
-1.67428,0.27268,2.08597,2.24624,0.87238,0.71000
-1.39919,0.14824,1.93879,2.19973,0.81717,0.21356
-1.72416,0.25810,2.07348,2.02416,0.64337,0.03634
-1.66553,-0.02238,1.84604,1.84853,0.47616,-0.10494
-1.62296,0.31587,2.06439,1.88698,0.34629,-0.37122
-1.45174,0.51003,2.25178,2.36856,0.38439,-0.33991
-1.50071,0.45551,2.14606,2.10045,0.44973,-0.30819
-1.69724,0.28977,1.95247,1.78280,0.11173,-0.64261
-1.45987,0.34884,2.16827,1.69473,0.20399,-0.75578
-1.62176,0.71283,2.19521,1.76870,-0.03251,-0.89421
-1.18740,0.71728,2.11661,2.03120,0.16047,-0.76029
-1.09177,0.66099,2.26989,2.04129,-0.03404,-0.73769
-1.17728,0.69476,1.99958,1.91215,-0.11849,-1.13589
-1.15087,0.52900,2.02915,1.75364,-0.17121,-1.01581
-1.14128,0.74067,2.03289,1.91605,-0.33696,-1.41618
-1.11264,0.82387,2.55249,1.97839,-0.37381,-1.43616
-1.29695,1.02226,2.29673,1.91852,-0.61885,-1.33620
-1.44064,0.94841,2.22928,1.66917,-0.56801,-1.65195
-1.23256,1.02307,2.47702,1.49186,-1.03730,-1.88830
-1.15245,1.09500,2.81927,1.52934,-1.14453,-1.63285
-0.98557,1.39559,3.11118,1.69057,-0.95719,-1.73463
-0.92324,1.70757,3.12048,1.74871,-1.12625,-1.66873
-1.02586,1.77096,2.79997,1.47565,-1.28250,-1.66374
-1.06093,1.71309,2.98306,1.20158,-1.20778,-2.00509
-0.82160,1.99673,2.79632,1.09408,-1.28699,-2.02037
-0.17596,2.03640,2.93980,1.50763,-1.09061,-1.99643
-0.09151,2.23838,3.19123,1.55901,-1.33262,-1.67279
0.06068,2.16062,2.83090,1.42427,-1.30800,-1.81518
-0.31116,2.35986,2.75478,1.12371,-1.84325,-2.10183
0.04823,2.12422,2.67448,1.19218,-1.96216,-2.32433
0.28131,2.57945,2.89191,1.12164,-1.77901,-2.21478
0.43096,2.76941,3.04885,1.17608,-1.61882,-2.29872
0.62325,2.70723,3.04728,0.77493,-1.76797,-2.17729
0.42885,2.60582,2.54854,0.65375,-2.04627,-2.23016
0.54231,2.82626,2.78937,0.14169,-2.26109,-2.20040
0.98220,3.14660,2.51712,0.15914,-2.14059,-2.05901
0.99714,2.93558,2.82879,0.32120,-1.96113,-1.96449
1.13256,3.08584,2.56857,0.20231,-2.21380,-2.06287
1.12096,2.96942,2.34754,0.02533,-2.24756,-2.06552
1.32671,2.94694,2.11722,-0.29351,-2.15772,-2.07312
1.50506,2.99077,2.05807,-0.38427,-2.16026,-2.08579
1.64203,2.98930,1.95019,-0.18123,-1.88516,-1.83204
1.74787,2.80556,1.89969,-0.52689,-1.91625,-2.04338
1.47944,2.96612,1.69625,-0.74721,-2.30204,-1.89866
1.70748,2.89596,1.71732,-1.08290,-2.32171,-2.12251
1.77667,2.84724,1.92599,-1.02901,-2.15830,-1.58977
2.05236,3.11533,1.75561,-0.78910,-1.68519,-1.44286
2.26774,3.05514,1.79347,-1.33004,-1.85223,-1.40868
2.14079,3.16671,1.33259,-1.36755,-1.80196,-1.84644
1.91369,2.70206,1.04348,-1.62934,-2.06360,-1.87410
2.51210,2.89072,1.26393,-1.49773,-1.72700,-1.47632
2.55007,3.00964,1.13295,-1.20558,-1.57109,-1.56785
2.78168,3.09916,1.17109,-0.98416,-1.34551,-1.41101
2.51032,2.63620,0.61907,-1.45241,-1.49478,-1.67591
2.34739,2.35748,0.32755,-1.25572,-1.73292,-1.95065
2.52107,2.43355,0.39901,-1.55459,-1.66807,-1.90068
2.73891,2.59790,0.58561,-1.35980,-1.87332,-1.67305
2.68569,2.51263,0.52409,-1.43317,-1.52228,-1.66425
2.55720,2.17090,0.40731,-1.35364,-1.98862,-1.85096
2.42183,2.32774,0.08335,-1.75678,-2.01798,-1.89273
2.32794,2.07642,0.09914,-1.82949,-1.75392,-1.68887
2.69613,2.30910,0.22706,-1.72022,-1.67903,-1.65114
2.49760,2.16235,0.17534,-1.56305,-1.76999,-1.59152
2.68646,1.91548,-0.04930,-1.64708,-1.79855,-1.55719
2.50915,1.96482,-0.10320,-1.70756,-1.95545,-1.78948
2.57967,1.76320,-0.10148,-1.44999,-1.90852,-1.51769
2.62032,1.82490,0.05258,-1.60762,-1.59524,-1.48741
2.56805,1.89670,-0.09429,-1.63253,-1.84959,-1.52275
2.53591,1.58502,-0.25018,-1.73178,-1.77400,-1.63247
2.05349,1.46332,-0.40141,-2.02470,-2.03210,-1.43582
2.45556,1.72895,-0.28653,-2.15329,-1.79334,-1.23910
2.32091,1.91097,-0.21941,-1.84350,-1.82746,-0.86108
2.70079,1.96796,-0.12335,-2.07814,-1.40930,-0.66857
2.45510,1.89329,-0.05895,-2.16296,-1.51593,-0.50451
2.48754,1.81840,-0.65511,-2.29415,-1.52479,-0.91802
2.67943,1.61372,-0.44355,-2.22686,-1.61319,-0.49694
3.00262,1.86727,-0.61624,-2.16383,-0.97876,-0.22259
3.21435,1.84418,-0.40168,-1.86097,-1.07796,-0.04369
3.13382,1.62737,-0.65958,-1.94992,-1.08287,-0.06902
2.69234,1.23186,-1.30075,-2.28594,-1.16443,-0.38665
2.66827,1.20429,-1.22047,-2.41059,-1.09098,-0.19769
2.70855,1.31034,-1.34287,-2.32763,-0.74005,-0.06234
3.06366,1.33665,-1.15003,-1.96626,-0.49690,0.36870
2.93459,0.90601,-1.39761,-2.03327,-0.64090,0.43599
2.68514,0.75854,-1.76483,-2.60124,-0.46672,0.41931
2.78934,0.76833,-1.76997,-2.56270,-0.67023,0.22087
2.82755,0.80833,-1.63884,-2.63638,-0.48583,0.49697
2.92451,0.45621,-1.93333,-2.33184,0.01823,1.03060
2.57631,0.48810,-1.79326,-2.32471,0.23351,0.89186
2.58104,0.27464,-2.07604,-2.52734,0.00869,0.90082
2.54768,-0.04553,-2.51896,-2.58006,0.22518,0.86777
2.45535,-0.14250,-2.45071,-2.29079,0.22304,0.88324
2.22945,-0.05454,-2.28473,-2.05678,0.44393,1.02530
2.29486,-0.56999,-2.43347,-1.90882,0.45105,1.24451
2.03820,-0.89873,-2.71140,-2.24655,0.45813,1.15906
1.84287,-0.76980,-2.56330,-2.20168,0.43126,1.02402
1.55273,-0.89908,-2.46279,-1.97360,0.81935,1.13026
1.75026,-0.64197,-2.49622,-1.95194,0.89906,1.61854
1.65236,-1.02828,-2.32993,-1.62244,0.93731,1.71118
1.36280,-1.04103,-2.42253,-1.71690,1.11054,1.30005
1.28977,-1.13112,-2.87456,-1.99825,0.78886,1.29834
1.12380,-1.17294,-2.71953,-1.48454,0.98080,1.55171
1.17580,-1.26103,-2.45674,-1.11202,1.53794,1.90809
1.16186,-1.06087,-2.33769,-0.95015,1.40638,1.93354
1.03222,-1.51594,-2.60800,-0.97121,1.32230,1.47172
0.61103,-1.74359,-2.93690,-1.00827,1.31842,1.21462
0.34322,-2.02305,-2.73773,-0.80568,1.33736,1.18107
0.70466,-1.71902,-2.42285,-0.60658,1.30844,1.45980
0.62668,-1.78953,-2.44235,-0.32675,1.43877,1.56810
0.43042,-1.98311,-2.21206,-0.61997,1.41412,1.52133
0.05881,-1.93755,-2.54384,-0.64684,1.29758,1.40077
0.03034,-1.95715,-2.55535,-0.72302,1.14979,1.64304
0.19385,-1.98927,-2.38043,-0.36690,1.25042,1.93019
0.23838,-2.04715,-2.12683,-0.19230,1.27460,1.83362
-0.08231,-2.11905,-2.32106,-0.48585,1.58409,1.97163
-0.17874,-2.33231,-2.20822,-0.43688,1.46491,1.71211
-0.30449,-2.36769,-2.10187,-0.21579,1.31525,2.02494
-0.24738,-2.28646,-1.94554,-0.06372,1.42098,2.12160
-0.28925,-2.02568,-2.14132,-0.04996,1.66258,2.22669
-0.45371,-2.38040,-1.86410,-0.11717,1.73413,2.06245
-0.80308,-2.63400,-2.02304,-0.37612,1.51306,1.88514
-0.99905,-2.65085,-1.88498,-0.26508,1.36629,2.25911
-0.89506,-2.39989,-1.52891,0.05784,1.82452,2.39993
-0.58247,-2.13144,-1.35447,0.06737,2.20283,2.66424
-1.07363,-1.99112,-1.42876,0.18589,2.18437,2.80253
-1.20271,-2.25234,-1.85290,0.07995,1.98615,2.39325
-1.02681,-2.45014,-2.03114,0.05670,2.02472,2.37566
-1.13280,-2.42208,-1.84764,0.15526,2.27592,2.67556
-0.62311,-2.02916,-1.52337,0.56035,2.55585,2.75088
-0.87684,-2.25281,-1.64856,0.64174,2.62632,2.76143
-1.04532,-2.42643,-1.74862,0.66049,2.56596,2.60386
-1.24098,-2.75968,-2.14164,0.58249,2.24796,2.45404
-1.31513,-2.85077,-1.78269,0.50319,2.42887,2.12134
-1.19698,-2.55868,-1.66706,0.71077,2.67626,2.44307
-1.39812,-2.63970,-1.59765,0.78264,2.73073,2.51454
-1.56424,-2.63033,-1.39892,0.63358,2.22086,2.07286
-1.85443,-2.75736,-1.75882,0.73518,2.35053,2.25350
-1.93130,-3.05910,-1.48305,0.72343,2.37541,1.93578
-1.98432,-2.94063,-1.18467,1.17281,2.44623,2.05431
-1.95569,-2.93267,-1.17814,1.16814,2.64964,2.10686
-2.38393,-2.86953,-1.39310,1.45949,2.43124,1.84314
-2.42764,-3.24807,-1.26911,1.23804,2.43855,1.77257
-2.28943,-2.98757,-1.25048,1.31317,2.36375,1.67120
-2.49622,-2.84568,-0.73634,1.63410,2.33019,1.83243
-2.59834,-3.05276,-0.64763,1.79334,2.05996,1.69949
-3.08278,-2.95912,-0.80597,1.51606,2.02744,1.28485
-3.26782,-3.06247,-0.49199,1.56732,1.83139,1.00956
-3.21822,-3.05472,-0.22277,1.83784,1.74651,1.12303
-2.92648,-2.73409,0.00488,2.16238,1.80898,1.45772
-2.88001,-2.30297,0.28447,2.15094,1.91593,1.39781
-2.99093,-2.62873,0.00575,1.85676,1.56248,1.08508
-3.50062,-2.28030,0.28347,2.06913,1.60377,1.04895
-3.16503,-2.24672,0.30332,2.12584,1.53636,0.95443
-2.77061,-1.98756,0.73559,2.39603,1.44902,1.01841
-2.82545,-1.65949,0.57269,2.58893,1.79812,0.84955
-3.13010,-1.82307,0.48735,2.58414,1.30350,0.80811
-3.06136,-1.86230,0.67910,2.54998,0.93123,0.25292
-3.17122,-2.11872,0.60755,2.14706,0.96124,0.07393
-3.01340,-1.85177,0.90038,2.30424,1.02741,0.19837
-2.79674,-1.42505,1.03624,2.36687,1.13067,0.47113
-2.86910,-1.52174,1.19844,2.21350,0.82167,0.50595
-3.02265,-1.38082,1.10742,2.14993,0.56214,0.11584
-3.08124,-1.11535,1.17012,1.91999,0.60400,0.06151
-2.96694,-1.11028,1.34854,2.23656,0.38948,0.12019
-2.66065,-0.91545,1.33210,2.01832,0.45710,0.45940
-2.40202,-0.77904,1.26853,2.18773,0.50840,0.37025
-2.66586,-0.95872,1.11687,2.09348,0.49820,0.02294
-2.58402,-0.67911,1.15442,1.88874,0.47938,-0.22383
-2.65301,-0.57536,1.39848,1.82481,0.56197,0.00030
-2.56080,-0.65546,1.51046,2.02659,0.55309,-0.21826
-2.46006,-0.50832,1.65556,1.62186,0.15048,-0.21829
-2.41236,-0.48157,1.59365,1.69938,0.16496,-0.27483
-2.68766,-0.51329,1.31681,1.41096,0.08781,-0.56422
-2.37085,-0.46995,1.78057,1.36518,0.15091,-0.43526
-2.28172,0.00294,2.12179,1.50655,0.27357,-0.39318
-2.09448,0.23054,1.87574,1.59408,0.00976,-0.28328
-2.38739,-0.07242,1.86118,1.14902,-0.03484,-0.40533
-2.37010,0.13854,1.78551,1.32507,-0.06338,-0.70682
-1.99102,0.19650,1.86782,1.59915,-0.12858,-0.75742
-1.59906,0.32642,2.10619,1.70872,0.07226,-0.47914
-1.75864,0.49440,1.79139,1.83728,0.04887,-0.63045
-1.90714,0.41427,1.77880,1.55846,-0.27278,-1.33315
-1.86279,0.30405,1.51149,1.53056,-0.59175,-1.44927
-1.78261,0.39339,1.59549,1.54119,-0.72345,-1.60703
-1.76649,0.38601,1.93096,1.70551,-0.73715,-1.67189
-1.62599,0.75861,2.08039,1.49871,-0.45814,-1.58087
-1.81720,0.49681,2.07354,1.22334,-0.93404,-1.74015
-1.54587,0.45915,2.03981,1.10309,-1.07329,-2.19429
-1.72665,0.68687,2.18527,1.12145,-1.13783,-2.24983
-1.25751,0.79789,2.25250,1.14481,-1.15085,-2.21468
-1.10807,0.96564,2.36443,1.23168,-1.11848,-2.15249
-1.15392,0.95069,2.32022,1.19672,-1.59750,-2.18436
-1.33388,0.80848,2.16712,1.05285,-1.78593,-2.31441
-1.24146,1.16201,1.93802,1.02054,-1.64772,-2.69031
-1.05076,1.34019,2.45547,1.00364,-1.77203,-2.39822
-1.07675,1.28221,2.30310,1.03157,-1.86677,-2.49170
-0.88058,1.49799,2.45420,0.95663,-1.99717,-2.56454
-1.09574,1.50896,2.18159,0.62988,-2.54521,-2.84325
-0.90608,1.43820,2.51701,0.42423,-2.22092,-2.73026
-0.47369,1.85162,2.76130,0.40640,-2.22352,-2.29604
-0.37706,2.18909,2.78367,0.49736,-2.21286,-2.38130
-0.54163,2.10305,2.62713,0.33959,-2.17325,-2.59181
-0.27124,2.09512,2.61086,0.06290,-2.57828,-2.39505
0.01900,2.45038,2.52899,0.14930,-2.65695,-2.71945
0.44892,2.74922,2.62652,0.27762,-2.08080,-2.17583
0.70155,2.76032,2.35637,0.35129,-2.06909,-2.29793
0.83295,2.71456,2.11804,0.10919,-2.31228,-2.20182
0.65578,2.55269,1.97104,-0.28905,-2.52189,-2.67173
0.60748,2.65823,1.83486,-0.59225,-2.49573,-2.76047
0.70518,2.67815,1.77793,-0.30038,-2.49637,-2.70220
1.21400,2.85819,2.02184,-0.39434,-2.31633,-2.31047
1.12736,2.79133,1.95906,-0.45488,-2.53115,-2.36309
1.31259,2.83235,1.83628,-1.11741,-2.68717,-2.52094
1.19167,2.64777,1.57223,-0.99283,-2.75422,-2.51131
1.47071,2.61406,1.62259,-1.14050,-2.52954,-2.06299
1.71130,2.85692,1.48473,-1.09946,-2.19974,-2.00029
1.69083,2.87823,1.18922,-1.13037,-2.31388,-1.94932
1.86644,2.68553,1.09346,-1.35286,-2.25279,-2.14175
1.81731,2.29879,0.85278,-1.30340,-2.32014,-2.04130
1.93717,2.50706,0.84222,-1.44161,-2.18313,-2.12031
1.94381,2.44228,0.79652,-1.43867,-2.09630,-2.01916
1.96564,2.53083,0.62920,-1.48818,-1.94819,-2.12797
1.93722,2.15527,0.76288,-1.70814,-2.39904,-2.05810
1.76768,2.09016,0.43428,-1.97084,-2.44563,-2.33962
1.93773,2.16766,0.42913,-1.70517,-2.15747,-2.08901
2.11112,2.55818,0.63150,-1.68577,-1.79856,-1.86177
2.36382,2.46884,0.58994,-1.60563,-1.93152,-1.88738
1.96979,2.39804,0.43848,-2.09270,-1.96502,-1.94803
2.15183,1.95401,0.18041,-1.96158,-1.93628,-2.09345
2.39286,2.03267,0.13041,-1.90427,-1.93300,-1.79649
2.70731,2.55421,0.51521,-1.41981,-1.55541,-1.54992
2.55926,2.44568,0.12045,-1.49602,-1.53140,-1.41734
2.62464,2.06723,0.18209,-1.64577,-1.68771,-1.94025
2.16449,2.04961,-0.10974,-1.73160,-2.11012,-1.83408
2.30502,1.63946,-0.19791,-1.88291,-1.99667,-2.17629
2.38117,2.10907,-0.07983,-1.75008,-1.84768,-1.93006
2.49450,1.98186,-0.01289,-1.54503,-1.84117,-1.65215
2.58075,1.96853,-0.10910,-1.77327,-2.09877,-1.49022
2.37531,1.60162,-0.23203,-2.06931,-2.05367,-1.48154
2.50019,1.79164,-0.37329,-2.11164,-1.89708,-1.53028
2.55221,1.98381,-0.42955,-1.93702,-1.82339,-1.18406
2.54618,1.86860,-0.22695,-1.69989,-1.52046,-1.25672
2.87276,2.00587,-0.23257,-1.71635,-1.54503,-0.93742
2.40273,1.79424,-0.52103,-1.96080,-1.75187,-1.15465
2.54166,1.39001,-0.59091,-2.01092,-1.77242,-0.79044
2.67194,1.81339,-0.59301,-2.00401,-1.30604,-0.70749
2.92641,1.58662,-0.42554,-1.86111,-1.47968,-0.44420
2.67393,1.48506,-0.71510,-1.99881,-1.29561,-0.39698
2.35575,1.44018,-0.84478,-2.29075,-1.52829,-0.65039
2.45823,1.38025,-1.04422,-2.29362,-1.48493,-0.26981
2.65371,1.44010,-0.71076,-2.10614,-1.19787,-0.02497
3.08778,1.51762,-0.58462,-2.28313,-0.67058,0.23328
3.02948,1.39316,-0.76238,-2.38728,-0.56076,0.35897
2.90378,1.03045,-1.33016,-2.55937,-0.68109,0.47863
2.62388,1.17599,-1.49948,-2.38848,-0.60029,0.65729
2.81764,1.25158,-1.45061,-2.08722,-0.15000,0.65765
3.37513,1.36668,-1.25621,-1.94490,0.18946,1.01902
3.02091,0.95476,-1.58044,-1.95462,0.32797,1.16029
2.75171,0.47513,-1.71148,-1.97380,0.26998,0.94837
2.78098,0.22193,-2.08580,-2.37722,0.12561,0.97379
2.69440,0.34521,-1.99903,-1.89899,0.13277,0.83836
2.84419,0.51206,-2.07594,-1.83608,0.71817,1.08294
2.77801,0.20332,-2.10445,-1.61846,0.79266,1.35084
2.42048,0.16412,-2.11626,-2.02758,0.79952,1.30493
2.42731,-0.17296,-2.29547,-2.04370,0.53506,1.11755
2.12848,-0.47570,-2.49947,-1.70485,0.95855,1.54935
2.23821,-0.13423,-2.21524,-1.79951,1.16871,1.59403
2.16244,-0.28655,-2.32005,-1.36136,1.17799,1.51955
2.08860,-0.66309,-2.46191,-1.58108,1.06887,1.49028
1.89512,-0.81243,-2.42097,-1.29709,0.97019,1.40805
1.66090,-0.92775,-2.67103,-1.28523,1.43325,1.55244
1.71831,-1.12952,-2.19627,-1.00367,1.35162,1.56483
1.68742,-0.96646,-2.12488,-1.15622,1.26204,1.61420
1.09610,-1.32944,-2.57467,-1.06959,1.43131,1.54988
0.81871,-1.54564,-2.27797,-1.25282,1.16174,1.67421
0.89423,-1.29199,-2.22582,-0.77819,1.27603,1.89571
1.07841,-1.37393,-1.77786,-0.72949,1.73609,2.01701
0.80979,-1.08999,-1.75898,-0.63751,1.87595,2.23693
0.81339,-1.55921,-1.92006,-0.47869,1.47201,2.08969
0.32939,-1.42442,-1.97587,-0.64899,1.43852,2.20820
0.66118,-1.43745,-1.92579,-0.41808,1.64224,2.00548
0.59276,-1.17620,-1.70686,-0.11318,2.18656,2.42415
0.83098,-1.13790,-1.82285,0.12301,2.12029,2.50974
0.56797,-1.51257,-1.85279,0.09594,1.86680,2.50382
0.13076,-1.66923,-2.07115,0.21087,1.74013,2.22432
0.31560,-1.75661,-1.98119,0.00981,1.94597,2.13140
0.29485,-1.73031,-1.87369,0.48080,1.95506,2.16691
0.09682,-1.40557,-1.41066,0.53945,2.04963,2.36820
0.05525,-1.53947,-1.63834,0.47903,2.23945,2.45254
0.03739,-1.93380,-1.62145,0.39781,1.75642,2.38094
-0.21011,-2.01994,-1.56039,0.14323,2.06712,2.43987
-0.19436,-1.72343,-1.38940,0.57619,2.00621,2.64348
-0.10352,-1.82355,-1.27088,0.54117,2.21574,3.04060
-0.07336,-1.75350,-1.53113,0.39757,2.54526,2.98146
-0.43039,-1.97818,-1.57405,0.57541,2.47533,2.60650
-0.38038,-2.01837,-1.64084,0.48700,2.29572,2.68911
-0.58263,-1.96088,-1.65492,0.75387,2.39779,2.99209
-0.44347,-1.88763,-1.18449,0.71560,2.64777,3.10545
-0.45611,-1.95034,-1.24954,0.89242,2.71362,3.03844
-1.11160,-2.21498,-1.49759,0.47666,2.62083,2.84181
-1.06489,-2.16025,-1.43289,0.76812,2.45315,2.97617
-0.80810,-2.08209,-1.15175,0.70116,2.54600,3.17409
-1.05715,-2.01106,-0.79142,0.85719,2.96672,3.38950
-0.93789,-2.02926,-0.97960,0.87653,2.79507,3.34739
-1.10248,-2.31813,-1.01610,0.73954,2.87367,2.76269
-1.32334,-2.48491,-1.13428,0.77016,2.88069,2.68045
-1.26722,-2.07047,-1.14473,1.25993,3.22259,2.83461
-1.22357,-2.21270,-0.63460,1.73877,3.37231,3.05125
-1.38624,-2.26388,-0.92057,1.69371,3.25430,2.89775
-1.57762,-2.45084,-1.04364,1.64638,2.98703,2.48930
-1.82315,-2.58507,-1.01263,1.78084,2.97504,2.04530
-1.77595,-2.42201,-1.09567,1.72159,2.75098,2.19674
-1.78758,-2.46526,-0.75564,1.86509,2.97142,2.24850
-1.74347,-2.53430,-0.54864,2.14564,2.84805,2.27834
-2.26249,-2.29532,-0.38574,2.03601,2.41463,2.07265
-2.26872,-2.56375,-0.56725,2.17453,2.42194,1.69054
-2.61736,-2.66124,-0.47240,1.93714,2.17834,1.57362
-2.23582,-2.28834,-0.16610,2.49376,2.47541,1.73991
-2.47873,-2.01230,0.17817,2.45092,2.29955,1.56279
-2.62890,-2.10211,0.10762,2.34902,1.99765,1.60264
-2.52127,-2.48749,-0.00470,2.43790,2.11982,1.11462
-2.80102,-2.35279,0.11103,2.41933,1.82799,1.12147
-2.51614,-2.26537,0.35871,2.65628,1.97001,1.35185
-2.94440,-2.13786,0.58111,2.74841,1.91946,1.34484
-2.96532,-1.93441,0.52176,2.56268,1.67034,0.81039
-3.15293,-1.89652,0.66817,2.54261,1.21105,0.87018
-3.12057,-2.01962,1.04454,2.36467,1.44639,0.84778
-3.01535,-1.67854,1.45527,2.64360,1.36973,0.90980
-2.82303,-1.06305,1.51757,2.42617,1.42494,0.89709
-2.76517,-1.30591,1.60024,2.39175,1.37588,0.86321
-2.79733,-1.31290,1.45936,2.15154,1.07493,0.51113
-3.00855,-1.09530,1.57038,2.24667,1.13016,0.52731
-2.64183,-0.92456,1.43742,2.32622,1.35155,0.89363
-2.13254,-0.70614,1.68361,2.70836,1.37915,0.98015
-2.16522,-0.77215,1.52312,2.52442,1.09294,0.61904
-2.55672,-0.90041,1.60788,2.43765,0.79626,0.15212
-2.45468,-0.64820,1.56096,2.04727,0.48398,-0.03628
-2.44926,-0.79822,1.59876,2.17917,0.79729,0.10128
-2.17153,-0.29001,1.86864,2.48937,0.89191,0.01065
-2.07984,-0.13805,1.59995,2.07854,0.51833,0.08450
-2.18083,-0.28394,1.72072,1.97045,0.36730,-0.12309
-2.41540,-0.51309,1.40876,1.92449,0.35060,-0.14667
-2.19588,-0.12320,1.48998,1.69607,0.33035,-0.01120
-1.90135,0.04838,1.87639,1.93867,0.49042,0.00732
-1.78399,-0.21509,1.59101,1.69528,0.29666,-0.19114
-2.17176,-0.04691,1.49478,1.79437,0.16098,-0.60107
-2.09286,-0.25686,1.39104,1.42537,-0.11647,-0.80454
-1.84981,-0.04118,1.58058,1.56563,-0.05462,-0.81447
-1.97662,-0.07545,1.63504,1.62544,0.01806,-0.70071
-2.01892,0.17028,1.74928,1.47045,0.05020,-0.83837
-2.20509,-0.17340,1.60500,1.35298,-0.33681,-1.04607
-2.34451,-0.00613,1.60918,1.01556,-0.48035,-1.35000
-1.89719,-0.05886,1.76220,1.22189,-0.47939,-1.11830
-2.02899,0.52017,2.14059,1.30103,-0.58299,-0.98038
-1.84914,0.59720,1.99646,1.30814,-0.36099,-1.32849
-1.89110,0.24084,2.01187,0.94123,-0.71822,-1.66315
-2.02837,0.27401,1.71588,0.82272,-1.14357,-1.57466
-1.82991,0.58506,2.06009,0.94215,-0.99865,-1.76530
-1.35539,0.79775,1.95260,1.45974,-0.84647,-1.91287
-1.30373,0.78709,2.23817,1.35810,-0.73329,-1.88814
-1.51755,0.83901,2.12302,1.13921,-1.22640,-2.12875
-1.47662,0.62114,1.61198,1.13316,-1.64103,-2.40179
-1.68438,0.86145,1.85467,0.91434,-1.56024,-2.65862
-1.19117,0.89132,2.15726,0.98055,-1.69156,-2.42516
-1.30289,1.20437,2.41043,1.04586,-1.70914,-2.37653
-1.18016,1.32595,2.02800,0.84189,-1.98626,-2.60092
-1.33954,0.98103,2.18332,0.61567,-2.43003,-2.76507
-1.23318,1.18366,1.96621,0.34807,-2.59441,-2.75814
-1.02730,1.52703,2.33915,0.37277,-2.39214,-2.73497
-0.82572,1.62738,2.24632,0.55026,-2.25162,-2.60552
-0.57861,1.88144,2.03536,0.35712,-2.35905,-3.01063
-0.64492,1.56914,1.82419,0.32274,-2.55420,-2.95267
-0.40441,1.70586,1.81788,0.21772,-2.67574,-3.07647
-0.28220,1.68204,2.01372,0.23079,-2.71912,-2.76307
-0.04186,2.03456,2.03937,-0.12192,-2.86299,-2.69147
-0.16653,1.73120,1.90522,-0.17543,-2.98349,-2.88751
-0.28915,2.00698,1.70964,-0.54397,-3.21788,-3.02078
-0.08648,2.13816,1.68222,-0.81372,-2.99172,-2.76392
-0.00482,2.18533,1.99595,-0.66848,-3.07789,-2.78279
0.56052,2.68326,1.92540,-0.87031,-2.70934,-2.37996
0.44879,2.49365,1.96660,-0.87808,-2.92878,-2.57530
0.49966,2.43930,1.73709,-1.48427,-2.95611,-2.60514
0.81872,2.43696,1.37353,-1.55186,-3.05623,-2.52279
0.93739,2.72310,1.42155,-1.45632,-2.51243,-2.50619
1.29373,2.79961,1.24554,-1.20528,-2.27897,-2.44551
1.33805,2.60353,1.26287,-1.13245,-2.20876,-2.50694
1.10396,2.34219,0.64460,-1.52471,-2.41575,-2.63085
1.08622,2.23553,0.52467,-1.54187,-2.73039,-2.92290
1.32957,2.27049,0.42232,-1.72529,-2.54427,-2.83302
1.75646,2.39553,0.70539,-1.66807,-2.61573,-2.69433
1.52915,2.15063,0.48971,-1.85185,-2.64118,-2.62639
1.56471,2.25116,0.29178,-1.93200,-2.47354,-2.68476
1.42235,2.14442,0.25350,-2.25157,-2.56820,-2.63775
1.78003,1.95511,0.35454,-2.16696,-2.83987,-2.55427
1.67769,1.99670,0.18951,-2.00720,-2.35267,-2.22575
1.95817,2.07925,0.14044,-2.03543,-2.41257,-2.39155
1.89015,1.99816,-0.27021,-2.22735,-2.47773,-2.38356
1.81117,1.64178,-0.40770,-2.42863,-2.44885,-2.55175
1.77031,1.49836,-0.15316,-2.11121,-2.55970,-2.69056
1.71456,1.50661,-0.38695,-2.18498,-2.52408,-2.52154
1.85642,1.68811,-0.08905,-2.22763,-2.50143,-2.39421
1.42727,1.56672,-0.25121,-2.12868,-2.47675,-2.39994
1.44945,1.20781,-0.56863,-2.51551,-2.82175,-2.66603
1.48769,1.43810,-0.55075,-2.40098,-2.47663,-2.46912
1.93459,1.60024,-0.29785,-2.09837,-2.39794,-2.21399
1.71000,1.52160,-0.26432,-2.32347,-2.39235,-1.99811
1.59803,1.52014,-0.18610,-2.45998,-2.31306,-2.13915
1.60907,1.23447,-0.38526,-2.40000,-2.43098,-2.07827
1.86114,1.57201,-0.75733,-2.46490,-2.28671,-1.76545
2.13070,1.72521,-0.29106,-2.25583,-2.07317,-1.57663
2.42810,1.61162,-0.36417,-2.07830,-1.79336,-1.60704
2.09350,1.63385,-0.71852,-2.24524,-1.89801,-1.64480
2.17968,1.32656,-0.94695,-2.29198,-2.23604,-1.85722
2.11978,1.08916,-0.89332,-2.30601,-2.32028,-1.59161
2.16750,1.29203,-0.87788,-2.08436,-2.22076,-1.60246
2.41026,1.55695,-0.94768,-2.11867,-1.68488,-1.30438
2.35205,1.40835,-0.75624,-2.41187,-1.88813,-1.05423
2.27478,1.10375,-1.26439,-2.71741,-1.80602,-1.05407
2.11757,1.18217,-1.32425,-2.46181,-1.86832,-1.13601
2.47690,1.33293,-1.34397,-2.54702,-1.49228,-0.82677
2.51263,1.36938,-1.24875,-2.64697,-1.30998,-0.50723
2.41480,1.16208,-1.48327,-2.74292,-1.23490,-0.41248
2.49383,0.79434,-1.79200,-2.83436,-1.10506,-0.20959
2.62533,0.67138,-1.64562,-2.69410,-0.97151,-0.22159
2.60915,0.54349,-1.75256,-2.70791,-0.87262,-0.13765
2.60926,0.61031,-1.88828,-2.63246,-0.92742,0.35802
2.54715,0.37946,-1.76892,-2.59926,-0.87547,0.31156
2.12431,0.15542,-2.09368,-2.69002,-0.58765,0.05509
1.98940,0.07441,-2.04072,-2.96782,-0.63220,0.50831
2.19838,0.03317,-1.86917,-2.61677,-0.34787,0.57402
2.36121,0.50495,-1.83464,-2.59617,0.16959,1.02080
2.38900,0.35589,-2.10543,-2.49527,0.28130,0.96608
2.31103,-0.26939,-2.41080,-2.71884,0.08900,1.02832
2.01409,-0.34100,-2.56917,-2.75036,0.04111,1.20055
2.20177,-0.31820,-2.19838,-2.19454,0.55876,1.14248
2.19940,-0.07950,-2.38173,-1.77329,0.90733,1.31704
2.40570,-0.20669,-2.28762,-1.67364,1.11483,1.57292
1.90196,-0.51165,-2.63096,-1.93694,1.04773,1.28438
1.61088,-1.01314,-2.78341,-1.69763,0.63633,1.04102
1.80526,-0.96276,-2.73149,-1.67197,0.85015,1.08845
1.57058,-1.11583,-2.67868,-1.49314,1.02710,1.32396
1.70289,-0.96577,-2.41058,-1.21205,1.23793,1.52882
1.24261,-1.14156,-2.62333,-1.16336,1.08663,1.23738
1.23604,-1.37704,-2.62452,-1.40508,0.93858,1.23450
1.24282,-1.33442,-2.48956,-1.21315,1.09459,1.39861
1.32817,-1.54374,-2.53510,-1.09177,1.24975,1.62902
1.04120,-1.35729,-2.20858,-0.59745,1.33843,1.75818
0.84730,-1.65130,-2.52567,-0.90834,1.63325,1.91666
0.83750,-1.85164,-2.43172,-0.51543,1.32117,1.77422
0.60372,-1.79435,-2.39756,-0.54662,1.44543,1.74600
0.57950,-1.72070,-2.14883,-0.22423,1.71294,2.06418
0.34642,-1.70615,-2.22786,-0.15608,1.46744,2.01578
0.19541,-1.83318,-1.89845,-0.37161,1.51759,2.03650
-0.03268,-1.88389,-2.16932,-0.27922,1.24416,1.88485
-0.15851,-1.88317,-1.66804,-0.27663,1.65547,1.96570
0.17461,-1.59089,-1.46422,0.08783,1.89285,2.50474
0.32918,-1.40406,-1.30358,0.14230,1.92589,2.51298
0.00964,-1.55158,-1.33575,0.22531,1.75531,2.45863
-0.10240,-1.59093,-1.74536,-0.08172,1.91477,2.63706
-0.21441,-1.60730,-1.68656,0.17706,1.87141,2.63827
0.09001,-1.63496,-1.24037,0.44317,2.20539,2.99209
0.34598,-1.29772,-1.19103,0.73835,2.57139,2.99435
0.28389,-1.66829,-1.42067,0.74195,2.64178,3.11408
-0.12039,-1.75398,-1.52916,0.64300,2.42345,2.77441
-0.31065,-1.89709,-1.56752,0.67760,2.45920,2.81878
-0.32877,-1.88761,-1.48230,0.75297,2.51599,2.86484
-0.27975,-1.76120,-1.24465,0.98426,2.78639,3.17308
-0.38475,-1.58408,-1.16598,0.84233,2.90218,3.12864
-0.36880,-1.77177,-1.14791,0.96560,2.81323,2.78915
-0.51338,-1.87254,-1.19781,0.90590,2.80150,2.76806
-0.66028,-1.70244,-1.09722,0.92216,2.74376,2.96621
-0.37363,-1.63946,-1.23045,1.01586,3.01631,3.34450
-0.51284,-1.92984,-1.22638,1.35574,3.18857,3.28426
-0.50202,-2.09196,-1.09818,1.00713,3.02040,3.25014
-0.82106,-2.34287,-1.20552,1.04075,3.03777,2.83032
-1.04637,-2.17502,-0.96618,1.29307,3.15862,3.22660
-1.07476,-2.11572,-0.74934,1.54454,3.33582,2.96162
-0.97024,-2.10901,-0.78982,1.67544,3.17714,2.96386
-1.30172,-2.38715,-0.99117,1.73053,3.07419,2.76277
-1.50807,-2.36822,-0.75391,1.55585,2.90429,2.65801
-1.43430,-2.32381,-0.37403,1.66307,3.16094,2.71839
-1.65352,-1.83172,-0.02694,2.10699,3.29869,2.99592
-1.57108,-2.01082,-0.13470,1.97962,3.09571,2.75754
-1.97211,-2.19982,-0.17832,2.06027,3.17302,2.47304
-2.00404,-2.27206,-0.34735,1.83046,3.07866,2.56689
-1.79860,-2.19095,-0.03103,2.44990,2.93241,2.52935
-1.53381,-1.60679,0.04898,2.49346,3.03043,2.38631
-1.84918,-1.60744,0.35214,2.73616,3.29676,2.41510
-1.81678,-2.02546,0.27716,2.98350,2.77886,2.10398
-2.10140,-1.93393,0.33242,2.91356,2.75403,1.92289
-2.21375,-1.83448,0.21558,2.82646,2.54284,1.80196
-2.30027,-1.58089,0.75861,3.05689,2.38588,1.87450
-2.31857,-1.68691,0.88907,3.20023,2.53486,1.83577
-2.30320,-1.72349,1.10213,3.04719,2.05351,1.61242
-2.53351,-1.41750,1.03027,2.81501,2.11619,1.33032
-2.58002,-1.42895,0.93350,2.89921,2.02814,1.20404
-2.14954,-1.12763,1.38900,3.02593,1.84701,1.22691
-2.17539,-1.01584,1.53337,3.15919,1.95918,1.41496
-2.19278,-1.03757,1.41781,2.92357,1.97104,1.36442
-2.36793,-1.14257,1.30822,2.77426,1.74655,1.15446
-2.37675,-1.10066,1.33546,3.11875,1.59520,0.99955
-2.09610,-0.92885,1.73368,3.22712,1.44746,1.08912
-2.16349,-0.78659,2.01186,3.07461,1.36178,1.15906
-2.42490,-0.75800,1.83949,2.89647,1.34349,0.97617
-2.63168,-0.88217,1.68514,2.49315,0.91466,0.57468
-2.40121,-0.44587,1.79306,2.47094,1.02016,0.83018
-2.20931,-0.30709,2.12866,2.44965,1.30194,1.00284
-1.83639,0.12814,2.47006,2.61526,1.11973,1.22724
-1.85049,0.09180,2.26125,2.63472,1.13459,0.76508
-2.10816,0.02145,2.24554,2.35250,1.07482,0.83943
-1.95556,0.02633,1.99646,2.38700,1.00157,0.56747
